Start Wavelength:    200.0000
End Wavelength:    800.0000
Read Mode:  ABS
Read Average:      0.1000
Nanometer Interval:      1.0000
Time:      0.0000

  200.0000      0.8818
  201.0000      0.7136
  202.0000      0.6373
  203.0000      0.5805
  204.0000      0.5264
  205.0000      0.4863
  206.0000      0.4544
  207.0000      0.4258
  208.0000      0.4009
  209.0000      0.3781
  210.0000      0.3587
  211.0000      0.3410
  212.0000      0.3266
  213.0000      0.3113
  214.0000      0.2993
  215.0000      0.2887
  216.0000      0.2791
  217.0000      0.2692
  218.0000      0.2615
  219.0000      0.2544
  220.0000      0.2474
  221.0000      0.2405
  222.0000      0.2344
  223.0000      0.2288
  224.0000      0.2231
  225.0000      0.2178
  226.0000      0.2126
  227.0000      0.2072
  228.0000      0.2030
  229.0000      0.1974
  230.0000      0.1929
  231.0000      0.1887
  232.0000      0.1843
  233.0000      0.1798
  234.0000      0.1762
  235.0000      0.1731
  236.0000      0.1686
  237.0000      0.1652
  238.0000      0.1620
  239.0000      0.1584
  240.0000      0.1558
  241.0000      0.1528
  242.0000      0.1501
  243.0000      0.1478
  244.0000      0.1455
  245.0000      0.1432
  246.0000      0.1411
  247.0000      0.1397
  248.0000      0.1381
  249.0000      0.1359
  250.0000      0.1351
  251.0000      0.1332
  252.0000      0.1311
  253.0000      0.1302
  254.0000      0.1285
  255.0000      0.1266
  256.0000      0.1252
  257.0000      0.1236
  258.0000      0.1223
  259.0000      0.1207
  260.0000      0.1190
  261.0000      0.1171
  262.0000      0.1153
  263.0000      0.1144
  264.0000      0.1121
  265.0000      0.1107
  266.0000      0.1085
  267.0000      0.1068
  268.0000      0.1050
  269.0000      0.1032
  270.0000      0.1014
  271.0000      0.0992
  272.0000      0.0976
  273.0000      0.0960
  274.0000      0.0937
  275.0000      0.0914
  276.0000      0.0899
  277.0000      0.0880
  278.0000      0.0859
  279.0000      0.0838
  280.0000      0.0820
  281.0000      0.0800
  282.0000      0.0779
  283.0000      0.0764
  284.0000      0.0745
  285.0000      0.0724
  286.0000      0.0713
  287.0000      0.0681
  288.0000      0.0675
  289.0000      0.0653
  290.0000      0.0634
  291.0000      0.0619
  292.0000      0.0601
  293.0000      0.0586
  294.0000      0.0567
  295.0000      0.0552
  296.0000      0.0540
  297.0000      0.0525
  298.0000      0.0510
  299.0000      0.0497
  300.0000      0.0489
  301.0000      0.0473
  302.0000      0.0467
  303.0000      0.0452
  304.0000      0.0446
  305.0000      0.0428
  306.0000      0.0421
  307.0000      0.0414
  308.0000      0.0401
  309.0000      0.0397
  310.0000      0.0383
  311.0000      0.0373
  312.0000      0.0372
  313.0000      0.0358
  314.0000      0.0347
  315.0000      0.0342
  316.0000      0.0342
  317.0000      0.0332
  318.0000      0.0330
  319.0000      0.0322
  320.0000      0.0317
  321.0000      0.0314
  322.0000      0.0303
  323.0000      0.0299
  324.0000      0.0290
  325.0000      0.0285
  326.0000      0.0283
  327.0000      0.0272
  328.0000      0.0270
  329.0000      0.0268
  330.0000      0.0261
  331.0000      0.0256
  332.0000      0.0252
  333.0000      0.0253
  334.0000      0.0247
  335.0000      0.0245
  336.0000      0.0237
  337.0000      0.0236
  338.0000      0.0231
  339.0000      0.0224
  340.0000      0.0223
  341.0000      0.0221
  342.0000      0.0220
  343.0000      0.0208
  344.0000      0.0208
  345.0000      0.0204
  346.0000      0.0201
  347.0000      0.0199
  348.0000      0.0198
  349.0000      0.0191
  350.0000      0.0189
  351.0000      0.0188
  352.0000      0.0185
  353.0000      0.0181
  354.0000      0.0183
  355.0000      0.0176
  356.0000      0.0178
  357.0000      0.0184
  358.0000      0.0188
  359.0000      0.0186
  360.0000      0.0186
  361.0000      0.0184
  362.0000      0.0182
  363.0000      0.0189
  364.0000      0.0171
  365.0000      0.0180
  366.0000      0.0175
  367.0000      0.0165
  368.0000      0.0163
  369.0000      0.0165
  370.0000      0.0157
  371.0000      0.0164
  372.0000      0.0163
  373.0000      0.0154
  374.0000      0.0165
  375.0000      0.0155
  376.0000      0.0154
  377.0000      0.0161
  378.0000      0.0152
  379.0000      0.0148
  380.0000      0.0147
  381.0000      0.0155
  382.0000      0.0137
  383.0000      0.0146
  384.0000      0.0147
  385.0000      0.0137
  386.0000      0.0139
  387.0000      0.0134
  388.0000      0.0135
  389.0000      0.0136
  390.0000      0.0126
  391.0000      0.0130
  392.0000      0.0126
  393.0000      0.0130
  394.0000      0.0124
  395.0000      0.0124
  396.0000      0.0126
  397.0000      0.0119
  398.0000      0.0122
  399.0000      0.0121
  400.0000      0.0116
  401.0000      0.0112
  402.0000      0.0120
  403.0000      0.0112
  404.0000      0.0110
  405.0000      0.0113
  406.0000      0.0108
  407.0000      0.0109
  408.0000      0.0107
  409.0000      0.0105
  410.0000      0.0110
  411.0000      0.0105
  412.0000      0.0105
  413.0000      0.0103
  414.0000      0.0107
  415.0000      0.0105
  416.0000      0.0103
  417.0000      0.0105
  418.0000      0.0102
  419.0000      0.0101
  420.0000      0.0100
  421.0000      0.0099
  422.0000      0.0098
  423.0000      0.0097
  424.0000      0.0096
  425.0000      0.0095
  426.0000      0.0096
  427.0000      0.0093
  428.0000      0.0093
  429.0000      0.0092
  430.0000      0.0090
  431.0000      0.0091
  432.0000      0.0089
  433.0000      0.0089
  434.0000      0.0089
  435.0000      0.0088
  436.0000      0.0087
  437.0000      0.0087
  438.0000      0.0087
  439.0000      0.0086
  440.0000      0.0084
  441.0000      0.0085
  442.0000      0.0084
  443.0000      0.0084
  444.0000      0.0083
  445.0000      0.0082
  446.0000      0.0081
  447.0000      0.0081
  448.0000      0.0081
  449.0000      0.0080
  450.0000      0.0081
  451.0000      0.0080
  452.0000      0.0081
  453.0000      0.0080
  454.0000      0.0080
  455.0000      0.0081
  456.0000      0.0080
  457.0000      0.0080
  458.0000      0.0079
  459.0000      0.0078
  460.0000      0.0078
  461.0000      0.0078
  462.0000      0.0077
  463.0000      0.0077
  464.0000      0.0076
  465.0000      0.0076
  466.0000      0.0076
  467.0000      0.0076
  468.0000      0.0075
  469.0000      0.0074
  470.0000      0.0074
  471.0000      0.0072
  472.0000      0.0072
  473.0000      0.0071
  474.0000      0.0070
  475.0000      0.0070
  476.0000      0.0069
  477.0000      0.0069
  478.0000      0.0070
  479.0000      0.0069
  480.0000      0.0070
  481.0000      0.0069
  482.0000      0.0069
  483.0000      0.0069
  484.0000      0.0069
  485.0000      0.0069
  486.0000      0.0069
  487.0000      0.0069
  488.0000      0.0068
  489.0000      0.0068
  490.0000      0.0068
  491.0000      0.0068
  492.0000      0.0068
  493.0000      0.0068
  494.0000      0.0067
  495.0000      0.0067
  496.0000      0.0067
  497.0000      0.0067
  498.0000      0.0066
  499.0000      0.0066
  500.0000      0.0065
  501.0000      0.0064
  502.0000      0.0063
  503.0000      0.0062
  504.0000      0.0060
  505.0000      0.0059
  506.0000      0.0058
  507.0000      0.0057
  508.0000      0.0056
  509.0000      0.0055
  510.0000      0.0055
  511.0000      0.0053
  512.0000      0.0054
  513.0000      0.0053
  514.0000      0.0053
  515.0000      0.0052
  516.0000      0.0051
  517.0000      0.0051
  518.0000      0.0050
  519.0000      0.0049
  520.0000      0.0047
  521.0000      0.0047
  522.0000      0.0046
  523.0000      0.0046
  524.0000      0.0046
  525.0000      0.0045
  526.0000      0.0045
  527.0000      0.0044
  528.0000      0.0044
  529.0000      0.0043
  530.0000      0.0042
  531.0000      0.0042
  532.0000      0.0041
  533.0000      0.0041
  534.0000      0.0040
  535.0000      0.0040
  536.0000      0.0040
  537.0000      0.0040
  538.0000      0.0040
  539.0000      0.0040
  540.0000      0.0041
  541.0000      0.0040
  542.0000      0.0040
  543.0000      0.0040
  544.0000      0.0040
  545.0000      0.0040
  546.0000      0.0040
  547.0000      0.0040
  548.0000      0.0041
  549.0000      0.0041
  550.0000      0.0041
  551.0000      0.0043
  552.0000      0.0044
  553.0000      0.0045
  554.0000      0.0047
  555.0000      0.0048
  556.0000      0.0049
  557.0000      0.0040
  558.0000      0.0039
  559.0000      0.0039
  560.0000      0.0038
  561.0000      0.0038
  562.0000      0.0037
  563.0000      0.0037
  564.0000      0.0037
  565.0000      0.0036
  566.0000      0.0036
  567.0000      0.0035
  568.0000      0.0035
  569.0000      0.0034
  570.0000      0.0034
  571.0000      0.0033
  572.0000      0.0033
  573.0000      0.0033
  574.0000      0.0033
  575.0000      0.0033
  576.0000      0.0033
  577.0000      0.0032
  578.0000      0.0032
  579.0000      0.0032
  580.0000      0.0031
  581.0000      0.0031
  582.0000      0.0031
  583.0000      0.0031
  584.0000      0.0031
  585.0000      0.0030
  586.0000      0.0030
  587.0000      0.0030
  588.0000      0.0030
  589.0000      0.0029
  590.0000      0.0029
  591.0000      0.0028
  592.0000      0.0028
  593.0000      0.0028
  594.0000      0.0028
  595.0000      0.0028
  596.0000      0.0028
  597.0000      0.0028
  598.0000      0.0027
  599.0000      0.0027
  600.0000      0.0027
  601.0000      0.0027
  602.0000      0.0027
  603.0000      0.0027
  604.0000      0.0027
  605.0000      0.0027
  606.0000      0.0027
  607.0000      0.0027
  608.0000      0.0027
  609.0000      0.0028
  610.0000      0.0028
  611.0000      0.0028
  612.0000      0.0028
  613.0000      0.0029
  614.0000      0.0029
  615.0000      0.0030
  616.0000      0.0030
  617.0000      0.0031
  618.0000      0.0031
  619.0000      0.0032
  620.0000      0.0032
  621.0000      0.0033
  622.0000      0.0034
  623.0000      0.0035
  624.0000      0.0035
  625.0000      0.0035
  626.0000      0.0036
  627.0000      0.0036
  628.0000      0.0037
  629.0000      0.0037
  630.0000      0.0038
  631.0000      0.0039
  632.0000      0.0039
  633.0000      0.0039
  634.0000      0.0040
  635.0000      0.0040
  636.0000      0.0040
  637.0000      0.0039
  638.0000      0.0039
  639.0000      0.0039
  640.0000      0.0040
  641.0000      0.0039
  642.0000      0.0040
  643.0000      0.0040
  644.0000      0.0040
  645.0000      0.0040
  646.0000      0.0040
  647.0000      0.0040
  648.0000      0.0040
  649.0000      0.0039
  650.0000      0.0039
  651.0000      0.0039
  652.0000      0.0039
  653.0000      0.0039
  654.0000      0.0039
  655.0000      0.0039
  656.0000      0.0038
  657.0000      0.0038
  658.0000      0.0037
  659.0000      0.0037
  660.0000      0.0036
  661.0000      0.0035
  662.0000      0.0035
  663.0000      0.0034
  664.0000      0.0034
  665.0000      0.0033
  666.0000      0.0033
  667.0000      0.0032
  668.0000      0.0032
  669.0000      0.0031
  670.0000      0.0031
  671.0000      0.0031
  672.0000      0.0030
  673.0000      0.0031
  674.0000      0.0030
  675.0000      0.0030
  676.0000      0.0030
  677.0000      0.0029
  678.0000      0.0029
  679.0000      0.0028
  680.0000      0.0028
  681.0000      0.0028
  682.0000      0.0028
  683.0000      0.0027
  684.0000      0.0027
  685.0000      0.0027
  686.0000      0.0028
  687.0000      0.0028
  688.0000      0.0028
  689.0000      0.0028
  690.0000      0.0028
  691.0000      0.0028
  692.0000      0.0028
  693.0000      0.0029
  694.0000      0.0029
  695.0000      0.0028
  696.0000      0.0029
  697.0000      0.0029
  698.0000      0.0029
  699.0000      0.0029
  700.0000      0.0030
  701.0000      0.0029
  702.0000      0.0029
  703.0000      0.0029
  704.0000      0.0029
  705.0000      0.0030
  706.0000      0.0030
  707.0000      0.0030
  708.0000      0.0030
  709.0000      0.0030
  710.0000      0.0030
  711.0000      0.0030
  712.0000      0.0030
  713.0000      0.0030
  714.0000      0.0029
  715.0000      0.0029
  716.0000      0.0030
  717.0000      0.0030
  718.0000      0.0030
  719.0000      0.0030
  720.0000      0.0031
  721.0000      0.0031
  722.0000      0.0032
  723.0000      0.0032
  724.0000      0.0032
  725.0000      0.0033
  726.0000      0.0033
  727.0000      0.0033
  728.0000      0.0033
  729.0000      0.0033
  730.0000      0.0034
  731.0000      0.0033
  732.0000      0.0034
  733.0000      0.0033
  734.0000      0.0034
  735.0000      0.0034
  736.0000      0.0028
  737.0000      0.0028
  738.0000      0.0027
  739.0000      0.0026
  740.0000      0.0026
  741.0000      0.0025
  742.0000      0.0025
  743.0000      0.0025
  744.0000      0.0025
  745.0000      0.0024
  746.0000      0.0024
  747.0000      0.0023
  748.0000      0.0023
  749.0000      0.0023
  750.0000      0.0024
  751.0000      0.0023
  752.0000      0.0024
  753.0000      0.0024
  754.0000      0.0024
  755.0000      0.0023
  756.0000      0.0023
  757.0000      0.0023
  758.0000      0.0023
  759.0000      0.0023
  760.0000      0.0023
  761.0000      0.0022
  762.0000      0.0023
  763.0000      0.0022
  764.0000      0.0023
  765.0000      0.0023
  766.0000      0.0023
  767.0000      0.0023
  768.0000      0.0023
  769.0000      0.0023
  770.0000      0.0023
  771.0000      0.0023
  772.0000      0.0023
  773.0000      0.0023
  774.0000      0.0023
  775.0000      0.0023
  776.0000      0.0023
  777.0000      0.0023
  778.0000      0.0023
  779.0000      0.0023
  780.0000      0.0023
  781.0000      0.0024
  782.0000      0.0024
  783.0000      0.0024
  784.0000      0.0024
  785.0000      0.0024
  786.0000      0.0025
  787.0000      0.0024
  788.0000      0.0024
  789.0000      0.0024
  790.0000      0.0024
  791.0000      0.0024
  792.0000      0.0024
  793.0000      0.0024
  794.0000      0.0024
  795.0000      0.0025
  796.0000      0.0025
  797.0000      0.0026
  798.0000      0.0026
  799.0000      0.0026
  800.0000      0.0026
