Start Wavelength:    200.0000
End Wavelength:    800.0000
Read Mode:  ABS
Read Average:      0.1000
Nanometer Interval:      1.0000
Time:      0.0000

  200.0000      1.0093
  201.0000      0.8295
  202.0000      0.7518
  203.0000      0.6815
  204.0000      0.6271
  205.0000      0.5798
  206.0000      0.5448
  207.0000      0.5137
  208.0000      0.4855
  209.0000      0.4595
  210.0000      0.4375
  211.0000      0.4181
  212.0000      0.4007
  213.0000      0.3843
  214.0000      0.3708
  215.0000      0.3570
  216.0000      0.3468
  217.0000      0.3357
  218.0000      0.3257
  219.0000      0.3176
  220.0000      0.3090
  221.0000      0.3008
  222.0000      0.2939
  223.0000      0.2874
  224.0000      0.2810
  225.0000      0.2737
  226.0000      0.2680
  227.0000      0.2623
  228.0000      0.2562
  229.0000      0.2498
  230.0000      0.2450
  231.0000      0.2390
  232.0000      0.2336
  233.0000      0.2283
  234.0000      0.2237
  235.0000      0.2188
  236.0000      0.2142
  237.0000      0.2096
  238.0000      0.2055
  239.0000      0.2018
  240.0000      0.1989
  241.0000      0.1946
  242.0000      0.1917
  243.0000      0.1889
  244.0000      0.1859
  245.0000      0.1833
  246.0000      0.1814
  247.0000      0.1788
  248.0000      0.1770
  249.0000      0.1750
  250.0000      0.1734
  251.0000      0.1713
  252.0000      0.1696
  253.0000      0.1683
  254.0000      0.1659
  255.0000      0.1645
  256.0000      0.1631
  257.0000      0.1607
  258.0000      0.1595
  259.0000      0.1576
  260.0000      0.1554
  261.0000      0.1535
  262.0000      0.1520
  263.0000      0.1501
  264.0000      0.1478
  265.0000      0.1468
  266.0000      0.1438
  267.0000      0.1416
  268.0000      0.1401
  269.0000      0.1378
  270.0000      0.1355
  271.0000      0.1336
  272.0000      0.1312
  273.0000      0.1288
  274.0000      0.1266
  275.0000      0.1244
  276.0000      0.1217
  277.0000      0.1195
  278.0000      0.1171
  279.0000      0.1145
  280.0000      0.1123
  281.0000      0.1110
  282.0000      0.1076
  283.0000      0.1060
  284.0000      0.1034
  285.0000      0.1009
  286.0000      0.0989
  287.0000      0.0962
  288.0000      0.0943
  289.0000      0.0920
  290.0000      0.0896
  291.0000      0.0877
  292.0000      0.0852
  293.0000      0.0839
  294.0000      0.0816
  295.0000      0.0797
  296.0000      0.0779
  297.0000      0.0757
  298.0000      0.0741
  299.0000      0.0724
  300.0000      0.0711
  301.0000      0.0694
  302.0000      0.0683
  303.0000      0.0666
  304.0000      0.0657
  305.0000      0.0634
  306.0000      0.0627
  307.0000      0.0621
  308.0000      0.0605
  309.0000      0.0596
  310.0000      0.0581
  311.0000      0.0572
  312.0000      0.0566
  313.0000      0.0552
  314.0000      0.0537
  315.0000      0.0534
  316.0000      0.0528
  317.0000      0.0518
  318.0000      0.0511
  319.0000      0.0505
  320.0000      0.0498
  321.0000      0.0495
  322.0000      0.0486
  323.0000      0.0473
  324.0000      0.0470
  325.0000      0.0460
  326.0000      0.0452
  327.0000      0.0445
  328.0000      0.0443
  329.0000      0.0434
  330.0000      0.0427
  331.0000      0.0424
  332.0000      0.0414
  333.0000      0.0412
  334.0000      0.0409
  335.0000      0.0404
  336.0000      0.0396
  337.0000      0.0396
  338.0000      0.0393
  339.0000      0.0383
  340.0000      0.0387
  341.0000      0.0383
  342.0000      0.0378
  343.0000      0.0374
  344.0000      0.0372
  345.0000      0.0363
  346.0000      0.0364
  347.0000      0.0361
  348.0000      0.0353
  349.0000      0.0348
  350.0000      0.0346
  351.0000      0.0341
  352.0000      0.0335
  353.0000      0.0337
  354.0000      0.0333
  355.0000      0.0329
  356.0000      0.0329
  357.0000      0.0314
  358.0000      0.0312
  359.0000      0.0302
  360.0000      0.0306
  361.0000      0.0298
  362.0000      0.0298
  363.0000      0.0302
  364.0000      0.0282
  365.0000      0.0293
  366.0000      0.0283
  367.0000      0.0278
  368.0000      0.0267
  369.0000      0.0267
  370.0000      0.0263
  371.0000      0.0252
  372.0000      0.0264
  373.0000      0.0258
  374.0000      0.0257
  375.0000      0.0250
  376.0000      0.0257
  377.0000      0.0239
  378.0000      0.0241
  379.0000      0.0247
  380.0000      0.0232
  381.0000      0.0240
  382.0000      0.0233
  383.0000      0.0226
  384.0000      0.0231
  385.0000      0.0231
  386.0000      0.0226
  387.0000      0.0222
  388.0000      0.0228
  389.0000      0.0218
  390.0000      0.0209
  391.0000      0.0217
  392.0000      0.0211
  393.0000      0.0213
  394.0000      0.0209
  395.0000      0.0206
  396.0000      0.0202
  397.0000      0.0204
  398.0000      0.0202
  399.0000      0.0199
  400.0000      0.0201
  401.0000      0.0194
  402.0000      0.0197
  403.0000      0.0195
  404.0000      0.0191
  405.0000      0.0192
  406.0000      0.0192
  407.0000      0.0190
  408.0000      0.0186
  409.0000      0.0185
  410.0000      0.0188
  411.0000      0.0180
  412.0000      0.0187
  413.0000      0.0184
  414.0000      0.0181
  415.0000      0.0182
  416.0000      0.0217
  417.0000      0.0216
  418.0000      0.0215
  419.0000      0.0215
  420.0000      0.0212
  421.0000      0.0212
  422.0000      0.0211
  423.0000      0.0207
  424.0000      0.0208
  425.0000      0.0205
  426.0000      0.0204
  427.0000      0.0201
  428.0000      0.0201
  429.0000      0.0198
  430.0000      0.0195
  431.0000      0.0194
  432.0000      0.0192
  433.0000      0.0191
  434.0000      0.0189
  435.0000      0.0186
  436.0000      0.0184
  437.0000      0.0181
  438.0000      0.0179
  439.0000      0.0176
  440.0000      0.0174
  441.0000      0.0171
  442.0000      0.0169
  443.0000      0.0167
  444.0000      0.0165
  445.0000      0.0163
  446.0000      0.0160
  447.0000      0.0159
  448.0000      0.0157
  449.0000      0.0153
  450.0000      0.0151
  451.0000      0.0147
  452.0000      0.0144
  453.0000      0.0140
  454.0000      0.0138
  455.0000      0.0137
  456.0000      0.0136
  457.0000      0.0134
  458.0000      0.0133
  459.0000      0.0132
  460.0000      0.0131
  461.0000      0.0131
  462.0000      0.0129
  463.0000      0.0129
  464.0000      0.0128
  465.0000      0.0126
  466.0000      0.0127
  467.0000      0.0126
  468.0000      0.0125
  469.0000      0.0124
  470.0000      0.0124
  471.0000      0.0123
  472.0000      0.0122
  473.0000      0.0121
  474.0000      0.0121
  475.0000      0.0120
  476.0000      0.0120
  477.0000      0.0119
  478.0000      0.0119
  479.0000      0.0118
  480.0000      0.0118
  481.0000      0.0117
  482.0000      0.0117
  483.0000      0.0116
  484.0000      0.0115
  485.0000      0.0115
  486.0000      0.0114
  487.0000      0.0114
  488.0000      0.0113
  489.0000      0.0112
  490.0000      0.0112
  491.0000      0.0112
  492.0000      0.0111
  493.0000      0.0111
  494.0000      0.0110
  495.0000      0.0110
  496.0000      0.0109
  497.0000      0.0108
  498.0000      0.0107
  499.0000      0.0106
  500.0000      0.0106
  501.0000      0.0105
  502.0000      0.0104
  503.0000      0.0104
  504.0000      0.0102
  505.0000      0.0102
  506.0000      0.0101
  507.0000      0.0101
  508.0000      0.0100
  509.0000      0.0099
  510.0000      0.0099
  511.0000      0.0098
  512.0000      0.0098
  513.0000      0.0098
  514.0000      0.0097
  515.0000      0.0097
  516.0000      0.0096
  517.0000      0.0097
  518.0000      0.0096
  519.0000      0.0096
  520.0000      0.0095
  521.0000      0.0095
  522.0000      0.0094
  523.0000      0.0094
  524.0000      0.0093
  525.0000      0.0093
  526.0000      0.0092
  527.0000      0.0092
  528.0000      0.0091
  529.0000      0.0091
  530.0000      0.0090
  531.0000      0.0090
  532.0000      0.0089
  533.0000      0.0089
  534.0000      0.0089
  535.0000      0.0088
  536.0000      0.0088
  537.0000      0.0088
  538.0000      0.0088
  539.0000      0.0087
  540.0000      0.0088
  541.0000      0.0087
  542.0000      0.0086
  543.0000      0.0086
  544.0000      0.0086
  545.0000      0.0085
  546.0000      0.0084
  547.0000      0.0084
  548.0000      0.0083
  549.0000      0.0083
  550.0000      0.0082
  551.0000      0.0082
  552.0000      0.0081
  553.0000      0.0080
  554.0000      0.0080
  555.0000      0.0079
  556.0000      0.0079
  557.0000      0.0081
  558.0000      0.0081
  559.0000      0.0080
  560.0000      0.0079
  561.0000      0.0079
  562.0000      0.0079
  563.0000      0.0078
  564.0000      0.0077
  565.0000      0.0077
  566.0000      0.0077
  567.0000      0.0076
  568.0000      0.0076
  569.0000      0.0075
  570.0000      0.0075
  571.0000      0.0075
  572.0000      0.0075
  573.0000      0.0075
  574.0000      0.0074
  575.0000      0.0074
  576.0000      0.0074
  577.0000      0.0074
  578.0000      0.0074
  579.0000      0.0074
  580.0000      0.0074
  581.0000      0.0074
  582.0000      0.0074
  583.0000      0.0074
  584.0000      0.0074
  585.0000      0.0074
  586.0000      0.0073
  587.0000      0.0073
  588.0000      0.0073
  589.0000      0.0073
  590.0000      0.0073
  591.0000      0.0073
  592.0000      0.0073
  593.0000      0.0073
  594.0000      0.0072
  595.0000      0.0072
  596.0000      0.0071
  597.0000      0.0071
  598.0000      0.0070
  599.0000      0.0069
  600.0000      0.0069
  601.0000      0.0069
  602.0000      0.0068
  603.0000      0.0068
  604.0000      0.0068
  605.0000      0.0068
  606.0000      0.0068
  607.0000      0.0067
  608.0000      0.0067
  609.0000      0.0067
  610.0000      0.0066
  611.0000      0.0066
  612.0000      0.0066
  613.0000      0.0065
  614.0000      0.0065
  615.0000      0.0064
  616.0000      0.0064
  617.0000      0.0064
  618.0000      0.0063
  619.0000      0.0064
  620.0000      0.0064
  621.0000      0.0064
  622.0000      0.0064
  623.0000      0.0064
  624.0000      0.0064
  625.0000      0.0064
  626.0000      0.0064
  627.0000      0.0065
  628.0000      0.0065
  629.0000      0.0065
  630.0000      0.0064
  631.0000      0.0065
  632.0000      0.0064
  633.0000      0.0064
  634.0000      0.0064
  635.0000      0.0064
  636.0000      0.0063
  637.0000      0.0062
  638.0000      0.0062
  639.0000      0.0062
  640.0000      0.0062
  641.0000      0.0061
  642.0000      0.0062
  643.0000      0.0061
  644.0000      0.0061
  645.0000      0.0061
  646.0000      0.0060
  647.0000      0.0061
  648.0000      0.0061
  649.0000      0.0061
  650.0000      0.0061
  651.0000      0.0061
  652.0000      0.0061
  653.0000      0.0061
  654.0000      0.0060
  655.0000      0.0060
  656.0000      0.0059
  657.0000      0.0060
  658.0000      0.0060
  659.0000      0.0060
  660.0000      0.0060
  661.0000      0.0061
  662.0000      0.0061
  663.0000      0.0062
  664.0000      0.0062
  665.0000      0.0063
  666.0000      0.0063
  667.0000      0.0064
  668.0000      0.0064
  669.0000      0.0065
  670.0000      0.0066
  671.0000      0.0067
  672.0000      0.0067
  673.0000      0.0067
  674.0000      0.0067
  675.0000      0.0067
  676.0000      0.0068
  677.0000      0.0067
  678.0000      0.0066
  679.0000      0.0065
  680.0000      0.0065
  681.0000      0.0064
  682.0000      0.0064
  683.0000      0.0063
  684.0000      0.0063
  685.0000      0.0062
  686.0000      0.0062
  687.0000      0.0061
  688.0000      0.0061
  689.0000      0.0061
  690.0000      0.0060
  691.0000      0.0059
  692.0000      0.0059
  693.0000      0.0059
  694.0000      0.0058
  695.0000      0.0058
  696.0000      0.0057
  697.0000      0.0057
  698.0000      0.0057
  699.0000      0.0056
  700.0000      0.0056
  701.0000      0.0055
  702.0000      0.0055
  703.0000      0.0055
  704.0000      0.0054
  705.0000      0.0054
  706.0000      0.0054
  707.0000      0.0054
  708.0000      0.0053
  709.0000      0.0053
  710.0000      0.0053
  711.0000      0.0053
  712.0000      0.0053
  713.0000      0.0053
  714.0000      0.0052
  715.0000      0.0052
  716.0000      0.0052
  717.0000      0.0052
  718.0000      0.0052
  719.0000      0.0052
  720.0000      0.0052
  721.0000      0.0052
  722.0000      0.0051
  723.0000      0.0051
  724.0000      0.0050
  725.0000      0.0050
  726.0000      0.0050
  727.0000      0.0049
  728.0000      0.0049
  729.0000      0.0049
  730.0000      0.0049
  731.0000      0.0049
  732.0000      0.0049
  733.0000      0.0048
  734.0000      0.0048
  735.0000      0.0048
  736.0000      0.0053
  737.0000      0.0053
  738.0000      0.0052
  739.0000      0.0052
  740.0000      0.0053
  741.0000      0.0053
  742.0000      0.0053
  743.0000      0.0053
  744.0000      0.0053
  745.0000      0.0053
  746.0000      0.0053
  747.0000      0.0053
  748.0000      0.0053
  749.0000      0.0053
  750.0000      0.0053
  751.0000      0.0052
  752.0000      0.0053
  753.0000      0.0053
  754.0000      0.0053
  755.0000      0.0053
  756.0000      0.0053
  757.0000      0.0053
  758.0000      0.0053
  759.0000      0.0053
  760.0000      0.0053
  761.0000      0.0053
  762.0000      0.0054
  763.0000      0.0054
  764.0000      0.0055
  765.0000      0.0056
  766.0000      0.0057
  767.0000      0.0058
  768.0000      0.0058
  769.0000      0.0059
  770.0000      0.0059
  771.0000      0.0060
  772.0000      0.0060
  773.0000      0.0060
  774.0000      0.0061
  775.0000      0.0061
  776.0000      0.0061
  777.0000      0.0061
  778.0000      0.0062
  779.0000      0.0062
  780.0000      0.0063
  781.0000      0.0062
  782.0000      0.0063
  783.0000      0.0063
  784.0000      0.0064
  785.0000      0.0064
  786.0000      0.0064
  787.0000      0.0065
  788.0000      0.0064
  789.0000      0.0065
  790.0000      0.0065
  791.0000      0.0066
  792.0000      0.0066
  793.0000      0.0066
  794.0000      0.0066
  795.0000      0.0066
  796.0000      0.0066
  797.0000      0.0066
  798.0000      0.0066
  799.0000      0.0065
  800.0000      0.0064
