Start Wavelength:    200.0000
End Wavelength:    800.0000
Read Mode:  ABS
Read Average:      0.1000
Nanometer Interval:      1.0000
Time:      0.0000

  200.0000      3.5072
  201.0000      2.9737
  202.0000      2.5366
  203.0000      2.2562
  204.0000      2.3517
  205.0000      2.3136
  206.0000      2.1571
  207.0000      2.1539
  208.0000      2.0974
  209.0000      2.0478
  210.0000      1.9762
  211.0000      1.9586
  212.0000      1.9102
  213.0000      1.8343
  214.0000      1.8363
  215.0000      1.7958
  216.0000      1.7472
  217.0000      1.7356
  218.0000      1.7028
  219.0000      1.6724
  220.0000      1.6415
  221.0000      1.6212
  222.0000      1.5963
  223.0000      1.5676
  224.0000      1.5464
  225.0000      1.5214
  226.0000      1.4944
  227.0000      1.4783
  228.0000      1.4593
  229.0000      1.4338
  230.0000      1.4139
  231.0000      1.3957
  232.0000      1.3740
  233.0000      1.3487
  234.0000      1.3320
  235.0000      1.3147
  236.0000      1.2918
  237.0000      1.2779
  238.0000      1.2615
  239.0000      1.2456
  240.0000      1.2350
  241.0000      1.2259
  242.0000      1.2148
  243.0000      1.2040
  244.0000      1.2000
  245.0000      1.1868
  246.0000      1.1788
  247.0000      1.1774
  248.0000      1.1683
  249.0000      1.1599
  250.0000      1.1572
  251.0000      1.1507
  252.0000      1.1429
  253.0000      1.1377
  254.0000      1.1335
  255.0000      1.1269
  256.0000      1.1204
  257.0000      1.1162
  258.0000      1.1114
  259.0000      1.1031
  260.0000      1.0980
  261.0000      1.0929
  262.0000      1.0853
  263.0000      1.0783
  264.0000      1.0715
  265.0000      1.0668
  266.0000      1.0596
  267.0000      1.0504
  268.0000      1.0429
  269.0000      1.0331
  270.0000      1.0314
  271.0000      1.0164
  272.0000      1.0088
  273.0000      0.9999
  274.0000      0.9909
  275.0000      0.9797
  276.0000      0.9717
  277.0000      0.9643
  278.0000      0.9556
  279.0000      0.9439
  280.0000      0.9370
  281.0000      0.9266
  282.0000      0.9148
  283.0000      0.9067
  284.0000      0.8980
  285.0000      0.8843
  286.0000      0.8764
  287.0000      0.8683
  288.0000      0.8550
  289.0000      0.8457
  290.0000      0.8362
  291.0000      0.8243
  292.0000      0.8117
  293.0000      0.8033
  294.0000      0.7960
  295.0000      0.7833
  296.0000      0.7756
  297.0000      0.7675
  298.0000      0.7569
  299.0000      0.7478
  300.0000      0.7412
  301.0000      0.7320
  302.0000      0.7233
  303.0000      0.7197
  304.0000      0.7117
  305.0000      0.7043
  306.0000      0.6978
  307.0000      0.6935
  308.0000      0.6870
  309.0000      0.6799
  310.0000      0.6753
  311.0000      0.6696
  312.0000      0.6642
  313.0000      0.6608
  314.0000      0.6536
  315.0000      0.6474
  316.0000      0.6434
  317.0000      0.6405
  318.0000      0.6341
  319.0000      0.6299
  320.0000      0.6273
  321.0000      0.6239
  322.0000      0.6153
  323.0000      0.6108
  324.0000      0.6081
  325.0000      0.6055
  326.0000      0.5985
  327.0000      0.5961
  328.0000      0.5942
  329.0000      0.5904
  330.0000      0.5853
  331.0000      0.5826
  332.0000      0.5792
  333.0000      0.5750
  334.0000      0.5731
  335.0000      0.5700
  336.0000      0.5669
  337.0000      0.5638
  338.0000      0.5616
  339.0000      0.5583
  340.0000      0.5541
  341.0000      0.5525
  342.0000      0.5484
  343.0000      0.5453
  344.0000      0.5431
  345.0000      0.5395
  346.0000      0.5366
  347.0000      0.5340
  348.0000      0.5315
  349.0000      0.5280
  350.0000      0.5256
  351.0000      0.5233
  352.0000      0.5202
  353.0000      0.5170
  354.0000      0.5164
  355.0000      0.5142
  356.0000      0.5116
  357.0000      0.5194
  358.0000      0.5127
  359.0000      0.5088
  360.0000      0.5086
  361.0000      0.5080
  362.0000      0.5015
  363.0000      0.5044
  364.0000      0.5023
  365.0000      0.5005
  366.0000      0.4981
  367.0000      0.4986
  368.0000      0.4949
  369.0000      0.4948
  370.0000      0.4942
  371.0000      0.4912
  372.0000      0.4876
  373.0000      0.4899
  374.0000      0.4859
  375.0000      0.4828
  376.0000      0.4842
  377.0000      0.4819
  378.0000      0.4811
  379.0000      0.4794
  380.0000      0.4798
  381.0000      0.4767
  382.0000      0.4735
  383.0000      0.4733
  384.0000      0.4720
  385.0000      0.4686
  386.0000      0.4688
  387.0000      0.4663
  388.0000      0.4634
  389.0000      0.4625
  390.0000      0.4623
  391.0000      0.4602
  392.0000      0.4588
  393.0000      0.4582
  394.0000      0.4555
  395.0000      0.4533
  396.0000      0.4537
  397.0000      0.4521
  398.0000      0.4483
  399.0000      0.4486
  400.0000      0.4482
  401.0000      0.4456
  402.0000      0.4438
  403.0000      0.4439
  404.0000      0.4431
  405.0000      0.4414
  406.0000      0.4413
  407.0000      0.4396
  408.0000      0.4387
  409.0000      0.4376
  410.0000      0.4380
  411.0000      0.4370
  412.0000      0.4359
  413.0000      0.4354
  414.0000      0.4340
  415.0000      0.4341
  416.0000      0.4272
  417.0000      0.4269
  418.0000      0.4257
  419.0000      0.4247
  420.0000      0.4232
  421.0000      0.4225
  422.0000      0.4214
  423.0000      0.4204
  424.0000      0.4195
  425.0000      0.4189
  426.0000      0.4178
  427.0000      0.4172
  428.0000      0.4165
  429.0000      0.4157
  430.0000      0.4152
  431.0000      0.4148
  432.0000      0.4140
  433.0000      0.4136
  434.0000      0.4131
  435.0000      0.4122
  436.0000      0.4116
  437.0000      0.4108
  438.0000      0.4097
  439.0000      0.4085
  440.0000      0.4072
  441.0000      0.4057
  442.0000      0.4040
  443.0000      0.4020
  444.0000      0.4003
  445.0000      0.3984
  446.0000      0.3960
  447.0000      0.3941
  448.0000      0.3917
  449.0000      0.3892
  450.0000      0.3870
  451.0000      0.3849
  452.0000      0.3827
  453.0000      0.3807
  454.0000      0.3785
  455.0000      0.3768
  456.0000      0.3750
  457.0000      0.3735
  458.0000      0.3719
  459.0000      0.3704
  460.0000      0.3692
  461.0000      0.3679
  462.0000      0.3666
  463.0000      0.3656
  464.0000      0.3646
  465.0000      0.3636
  466.0000      0.3626
  467.0000      0.3616
  468.0000      0.3606
  469.0000      0.3595
  470.0000      0.3584
  471.0000      0.3573
  472.0000      0.3558
  473.0000      0.3548
  474.0000      0.3536
  475.0000      0.3525
  476.0000      0.3513
  477.0000      0.3501
  478.0000      0.3489
  479.0000      0.3478
  480.0000      0.3468
  481.0000      0.3458
  482.0000      0.3448
  483.0000      0.3440
  484.0000      0.3430
  485.0000      0.3420
  486.0000      0.3411
  487.0000      0.3402
  488.0000      0.3391
  489.0000      0.3382
  490.0000      0.3374
  491.0000      0.3368
  492.0000      0.3364
  493.0000      0.3358
  494.0000      0.3353
  495.0000      0.3346
  496.0000      0.3337
  497.0000      0.3326
  498.0000      0.3317
  499.0000      0.3305
  500.0000      0.3293
  501.0000      0.3281
  502.0000      0.3269
  503.0000      0.3257
  504.0000      0.3244
  505.0000      0.3231
  506.0000      0.3217
  507.0000      0.3203
  508.0000      0.3188
  509.0000      0.3174
  510.0000      0.3158
  511.0000      0.3145
  512.0000      0.3133
  513.0000      0.3121
  514.0000      0.3110
  515.0000      0.3100
  516.0000      0.3089
  517.0000      0.3079
  518.0000      0.3068
  519.0000      0.3056
  520.0000      0.3043
  521.0000      0.3030
  522.0000      0.3015
  523.0000      0.3002
  524.0000      0.2990
  525.0000      0.2979
  526.0000      0.2971
  527.0000      0.2962
  528.0000      0.2951
  529.0000      0.2938
  530.0000      0.2923
  531.0000      0.2910
  532.0000      0.2895
  533.0000      0.2882
  534.0000      0.2870
  535.0000      0.2859
  536.0000      0.2849
  537.0000      0.2837
  538.0000      0.2826
  539.0000      0.2816
  540.0000      0.2807
  541.0000      0.2799
  542.0000      0.2789
  543.0000      0.2780
  544.0000      0.2774
  545.0000      0.2770
  546.0000      0.2768
  547.0000      0.2767
  548.0000      0.2765
  549.0000      0.2763
  550.0000      0.2760
  551.0000      0.2755
  552.0000      0.2751
  553.0000      0.2747
  554.0000      0.2744
  555.0000      0.2744
  556.0000      0.2746
  557.0000      0.2743
  558.0000      0.2731
  559.0000      0.2722
  560.0000      0.2712
  561.0000      0.2703
  562.0000      0.2695
  563.0000      0.2688
  564.0000      0.2680
  565.0000      0.2672
  566.0000      0.2663
  567.0000      0.2654
  568.0000      0.2647
  569.0000      0.2639
  570.0000      0.2631
  571.0000      0.2624
  572.0000      0.2618
  573.0000      0.2610
  574.0000      0.2603
  575.0000      0.2596
  576.0000      0.2590
  577.0000      0.2587
  578.0000      0.2583
  579.0000      0.2578
  580.0000      0.2572
  581.0000      0.2569
  582.0000      0.2566
  583.0000      0.2566
  584.0000      0.2565
  585.0000      0.2564
  586.0000      0.2562
  587.0000      0.2561
  588.0000      0.2561
  589.0000      0.2562
  590.0000      0.2562
  591.0000      0.2562
  592.0000      0.2562
  593.0000      0.2562
  594.0000      0.2562
  595.0000      0.2560
  596.0000      0.2558
  597.0000      0.2556
  598.0000      0.2553
  599.0000      0.2549
  600.0000      0.2546
  601.0000      0.2544
  602.0000      0.2542
  603.0000      0.2542
  604.0000      0.2541
  605.0000      0.2540
  606.0000      0.2539
  607.0000      0.2538
  608.0000      0.2536
  609.0000      0.2535
  610.0000      0.2531
  611.0000      0.2527
  612.0000      0.2524
  613.0000      0.2520
  614.0000      0.2516
  615.0000      0.2513
  616.0000      0.2510
  617.0000      0.2502
  618.0000      0.2492
  619.0000      0.2482
  620.0000      0.2473
  621.0000      0.2468
  622.0000      0.2465
  623.0000      0.2462
  624.0000      0.2461
  625.0000      0.2460
  626.0000      0.2459
  627.0000      0.2457
  628.0000      0.2456
  629.0000      0.2453
  630.0000      0.2449
  631.0000      0.2442
  632.0000      0.2437
  633.0000      0.2431
  634.0000      0.2427
  635.0000      0.2421
  636.0000      0.2415
  637.0000      0.2408
  638.0000      0.2401
  639.0000      0.2396
  640.0000      0.2389
  641.0000      0.2383
  642.0000      0.2377
  643.0000      0.2372
  644.0000      0.2368
  645.0000      0.2362
  646.0000      0.2357
  647.0000      0.2348
  648.0000      0.2337
  649.0000      0.2328
  650.0000      0.2321
  651.0000      0.2312
  652.0000      0.2305
  653.0000      0.2297
  654.0000      0.2290
  655.0000      0.2283
  656.0000      0.2277
  657.0000      0.2272
  658.0000      0.2267
  659.0000      0.2264
  660.0000      0.2264
  661.0000      0.2266
  662.0000      0.2270
  663.0000      0.2272
  664.0000      0.2279
  665.0000      0.2286
  666.0000      0.2293
  667.0000      0.2301
  668.0000      0.2307
  669.0000      0.2313
  670.0000      0.2319
  671.0000      0.2323
  672.0000      0.2326
  673.0000      0.2332
  674.0000      0.2336
  675.0000      0.2340
  676.0000      0.2343
  677.0000      0.2348
  678.0000      0.2351
  679.0000      0.2354
  680.0000      0.2356
  681.0000      0.2354
  682.0000      0.2350
  683.0000      0.2343
  684.0000      0.2333
  685.0000      0.2322
  686.0000      0.2309
  687.0000      0.2294
  688.0000      0.2279
  689.0000      0.2264
  690.0000      0.2247
  691.0000      0.2230
  692.0000      0.2211
  693.0000      0.2193
  694.0000      0.2175
  695.0000      0.2159
  696.0000      0.2144
  697.0000      0.2131
  698.0000      0.2118
  699.0000      0.2106
  700.0000      0.2096
  701.0000      0.2086
  702.0000      0.2077
  703.0000      0.2069
  704.0000      0.2062
  705.0000      0.2056
  706.0000      0.2047
  707.0000      0.2041
  708.0000      0.2034
  709.0000      0.2027
  710.0000      0.2022
  711.0000      0.2016
  712.0000      0.2010
  713.0000      0.2003
  714.0000      0.1998
  715.0000      0.1991
  716.0000      0.1984
  717.0000      0.1978
  718.0000      0.1972
  719.0000      0.1969
  720.0000      0.1965
  721.0000      0.1962
  722.0000      0.1957
  723.0000      0.1953
  724.0000      0.1950
  725.0000      0.1946
  726.0000      0.1940
  727.0000      0.1937
  728.0000      0.1933
  729.0000      0.1926
  730.0000      0.1919
  731.0000      0.1914
  732.0000      0.1910
  733.0000      0.1906
  734.0000      0.1904
  735.0000      0.1903
  736.0000      0.1876
  737.0000      0.1874
  738.0000      0.1871
  739.0000      0.1868
  740.0000      0.1865
  741.0000      0.1861
  742.0000      0.1859
  743.0000      0.1856
  744.0000      0.1851
  745.0000      0.1848
  746.0000      0.1844
  747.0000      0.1840
  748.0000      0.1837
  749.0000      0.1834
  750.0000      0.1832
  751.0000      0.1830
  752.0000      0.1828
  753.0000      0.1825
  754.0000      0.1824
  755.0000      0.1821
  756.0000      0.1821
  757.0000      0.1820
  758.0000      0.1816
  759.0000      0.1814
  760.0000      0.1814
  761.0000      0.1813
  762.0000      0.1811
  763.0000      0.1808
  764.0000      0.1807
  765.0000      0.1806
  766.0000      0.1805
  767.0000      0.1805
  768.0000      0.1804
  769.0000      0.1801
  770.0000      0.1799
  771.0000      0.1798
  772.0000      0.1795
  773.0000      0.1792
  774.0000      0.1790
  775.0000      0.1788
  776.0000      0.1786
  777.0000      0.1782
  778.0000      0.1780
  779.0000      0.1777
  780.0000      0.1775
  781.0000      0.1773
  782.0000      0.1770
  783.0000      0.1767
  784.0000      0.1762
  785.0000      0.1757
  786.0000      0.1753
  787.0000      0.1749
  788.0000      0.1747
  789.0000      0.1742
  790.0000      0.1739
  791.0000      0.1735
  792.0000      0.1732
  793.0000      0.1729
  794.0000      0.1728
  795.0000      0.1727
  796.0000      0.1724
  797.0000      0.1722
  798.0000      0.1720
  799.0000      0.1717
  800.0000      0.1715
