Start Wavelength:    200.0000
End Wavelength:    800.0000
Read Mode:  ABS
Read Average:      0.1000
Nanometer Interval:      1.0000
Time:      0.0000

  200.0000      0.6011
  201.0000      0.5591
  202.0000      0.5386
  203.0000      0.5145
  204.0000      0.4957
  205.0000      0.4763
  206.0000      0.4631
  207.0000      0.4470
  208.0000      0.4343
  209.0000      0.4213
  210.0000      0.4094
  211.0000      0.3995
  212.0000      0.3901
  213.0000      0.3792
  214.0000      0.3707
  215.0000      0.3626
  216.0000      0.3549
  217.0000      0.3473
  218.0000      0.3407
  219.0000      0.3348
  220.0000      0.3289
  221.0000      0.3227
  222.0000      0.3177
  223.0000      0.3119
  224.0000      0.3078
  225.0000      0.3025
  226.0000      0.2981
  227.0000      0.2941
  228.0000      0.2894
  229.0000      0.2846
  230.0000      0.2809
  231.0000      0.2760
  232.0000      0.2726
  233.0000      0.2682
  234.0000      0.2644
  235.0000      0.2605
  236.0000      0.2572
  237.0000      0.2538
  238.0000      0.2511
  239.0000      0.2483
  240.0000      0.2460
  241.0000      0.2430
  242.0000      0.2414
  243.0000      0.2393
  244.0000      0.2381
  245.0000      0.2364
  246.0000      0.2341
  247.0000      0.2334
  248.0000      0.2317
  249.0000      0.2300
  250.0000      0.2291
  251.0000      0.2276
  252.0000      0.2265
  253.0000      0.2255
  254.0000      0.2241
  255.0000      0.2230
  256.0000      0.2218
  257.0000      0.2209
  258.0000      0.2202
  259.0000      0.2189
  260.0000      0.2179
  261.0000      0.2161
  262.0000      0.2152
  263.0000      0.2144
  264.0000      0.2120
  265.0000      0.2118
  266.0000      0.2101
  267.0000      0.2090
  268.0000      0.2078
  269.0000      0.2065
  270.0000      0.2053
  271.0000      0.2035
  272.0000      0.2020
  273.0000      0.2008
  274.0000      0.1989
  275.0000      0.1987
  276.0000      0.1963
  277.0000      0.1949
  278.0000      0.1937
  279.0000      0.1918
  280.0000      0.1907
  281.0000      0.1888
  282.0000      0.1871
  283.0000      0.1858
  284.0000      0.1829
  285.0000      0.1821
  286.0000      0.1798
  287.0000      0.1783
  288.0000      0.1763
  289.0000      0.1745
  290.0000      0.1726
  291.0000      0.1714
  292.0000      0.1683
  293.0000      0.1676
  294.0000      0.1647
  295.0000      0.1634
  296.0000      0.1612
  297.0000      0.1597
  298.0000      0.1578
  299.0000      0.1559
  300.0000      0.1543
  301.0000      0.1525
  302.0000      0.1506
  303.0000      0.1490
  304.0000      0.1475
  305.0000      0.1461
  306.0000      0.1447
  307.0000      0.1431
  308.0000      0.1419
  309.0000      0.1411
  310.0000      0.1391
  311.0000      0.1380
  312.0000      0.1367
  313.0000      0.1362
  314.0000      0.1356
  315.0000      0.1342
  316.0000      0.1338
  317.0000      0.1328
  318.0000      0.1319
  319.0000      0.1314
  320.0000      0.1299
  321.0000      0.1295
  322.0000      0.1285
  323.0000      0.1275
  324.0000      0.1271
  325.0000      0.1258
  326.0000      0.1255
  327.0000      0.1250
  328.0000      0.1241
  329.0000      0.1237
  330.0000      0.1230
  331.0000      0.1225
  332.0000      0.1217
  333.0000      0.1211
  334.0000      0.1209
  335.0000      0.1197
  336.0000      0.1194
  337.0000      0.1194
  338.0000      0.1179
  339.0000      0.1180
  340.0000      0.1172
  341.0000      0.1167
  342.0000      0.1165
  343.0000      0.1153
  344.0000      0.1148
  345.0000      0.1140
  346.0000      0.1141
  347.0000      0.1130
  348.0000      0.1131
  349.0000      0.1129
  350.0000      0.1123
  351.0000      0.1116
  352.0000      0.1118
  353.0000      0.1107
  354.0000      0.1109
  355.0000      0.1101
  356.0000      0.1098
  357.0000      0.1099
  358.0000      0.1078
  359.0000      0.1078
  360.0000      0.1096
  361.0000      0.1067
  362.0000      0.1083
  363.0000      0.1058
  364.0000      0.1081
  365.0000      0.1071
  366.0000      0.1065
  367.0000      0.1052
  368.0000      0.1060
  369.0000      0.1047
  370.0000      0.1053
  371.0000      0.1035
  372.0000      0.1038
  373.0000      0.1030
  374.0000      0.1033
  375.0000      0.1031
  376.0000      0.1019
  377.0000      0.1024
  378.0000      0.1029
  379.0000      0.1009
  380.0000      0.1020
  381.0000      0.1003
  382.0000      0.1007
  383.0000      0.0995
  384.0000      0.0996
  385.0000      0.0990
  386.0000      0.0987
  387.0000      0.0986
  388.0000      0.0981
  389.0000      0.0980
  390.0000      0.0981
  391.0000      0.0965
  392.0000      0.0970
  393.0000      0.0960
  394.0000      0.0963
  395.0000      0.0963
  396.0000      0.0954
  397.0000      0.0954
  398.0000      0.0946
  399.0000      0.0947
  400.0000      0.0950
  401.0000      0.0944
  402.0000      0.0945
  403.0000      0.0937
  404.0000      0.0941
  405.0000      0.0935
  406.0000      0.0932
  407.0000      0.0936
  408.0000      0.0936
  409.0000      0.0930
  410.0000      0.0927
  411.0000      0.0923
  412.0000      0.0931
  413.0000      0.0922
  414.0000      0.0924
  415.0000      0.0928
  416.0000      0.0924
  417.0000      0.0924
  418.0000      0.0923
  419.0000      0.0922
  420.0000      0.0919
  421.0000      0.0919
  422.0000      0.0916
  423.0000      0.0916
  424.0000      0.0913
  425.0000      0.0912
  426.0000      0.0910
  427.0000      0.0909
  428.0000      0.0906
  429.0000      0.0906
  430.0000      0.0904
  431.0000      0.0903
  432.0000      0.0902
  433.0000      0.0901
  434.0000      0.0898
  435.0000      0.0898
  436.0000      0.0897
  437.0000      0.0894
  438.0000      0.0892
  439.0000      0.0890
  440.0000      0.0888
  441.0000      0.0886
  442.0000      0.0883
  443.0000      0.0880
  444.0000      0.0878
  445.0000      0.0874
  446.0000      0.0870
  447.0000      0.0866
  448.0000      0.0861
  449.0000      0.0855
  450.0000      0.0850
  451.0000      0.0846
  452.0000      0.0839
  453.0000      0.0835
  454.0000      0.0830
  455.0000      0.0827
  456.0000      0.0824
  457.0000      0.0820
  458.0000      0.0818
  459.0000      0.0814
  460.0000      0.0811
  461.0000      0.0810
  462.0000      0.0807
  463.0000      0.0807
  464.0000      0.0805
  465.0000      0.0805
  466.0000      0.0805
  467.0000      0.0803
  468.0000      0.0802
  469.0000      0.0799
  470.0000      0.0798
  471.0000      0.0794
  472.0000      0.0791
  473.0000      0.0789
  474.0000      0.0786
  475.0000      0.0784
  476.0000      0.0781
  477.0000      0.0779
  478.0000      0.0777
  479.0000      0.0775
  480.0000      0.0774
  481.0000      0.0772
  482.0000      0.0771
  483.0000      0.0770
  484.0000      0.0769
  485.0000      0.0767
  486.0000      0.0767
  487.0000      0.0766
  488.0000      0.0765
  489.0000      0.0764
  490.0000      0.0764
  491.0000      0.0763
  492.0000      0.0762
  493.0000      0.0760
  494.0000      0.0759
  495.0000      0.0757
  496.0000      0.0754
  497.0000      0.0752
  498.0000      0.0749
  499.0000      0.0746
  500.0000      0.0744
  501.0000      0.0741
  502.0000      0.0739
  503.0000      0.0739
  504.0000      0.0741
  505.0000      0.0742
  506.0000      0.0742
  507.0000      0.0742
  508.0000      0.0741
  509.0000      0.0740
  510.0000      0.0738
  511.0000      0.0736
  512.0000      0.0730
  513.0000      0.0727
  514.0000      0.0723
  515.0000      0.0719
  516.0000      0.0718
  517.0000      0.0716
  518.0000      0.0714
  519.0000      0.0712
  520.0000      0.0710
  521.0000      0.0709
  522.0000      0.0708
  523.0000      0.0706
  524.0000      0.0705
  525.0000      0.0703
  526.0000      0.0701
  527.0000      0.0699
  528.0000      0.0697
  529.0000      0.0695
  530.0000      0.0693
  531.0000      0.0691
  532.0000      0.0688
  533.0000      0.0687
  534.0000      0.0686
  535.0000      0.0684
  536.0000      0.0682
  537.0000      0.0680
  538.0000      0.0677
  539.0000      0.0674
  540.0000      0.0670
  541.0000      0.0667
  542.0000      0.0665
  543.0000      0.0662
  544.0000      0.0660
  545.0000      0.0659
  546.0000      0.0658
  547.0000      0.0657
  548.0000      0.0655
  549.0000      0.0654
  550.0000      0.0652
  551.0000      0.0651
  552.0000      0.0650
  553.0000      0.0649
  554.0000      0.0647
  555.0000      0.0646
  556.0000      0.0644
  557.0000      0.0629
  558.0000      0.0628
  559.0000      0.0626
  560.0000      0.0624
  561.0000      0.0623
  562.0000      0.0623
  563.0000      0.0621
  564.0000      0.0620
  565.0000      0.0619
  566.0000      0.0619
  567.0000      0.0617
  568.0000      0.0617
  569.0000      0.0616
  570.0000      0.0617
  571.0000      0.0616
  572.0000      0.0615
  573.0000      0.0614
  574.0000      0.0614
  575.0000      0.0613
  576.0000      0.0613
  577.0000      0.0612
  578.0000      0.0612
  579.0000      0.0611
  580.0000      0.0609
  581.0000      0.0608
  582.0000      0.0606
  583.0000      0.0604
  584.0000      0.0604
  585.0000      0.0602
  586.0000      0.0601
  587.0000      0.0600
  588.0000      0.0599
  589.0000      0.0598
  590.0000      0.0597
  591.0000      0.0595
  592.0000      0.0594
  593.0000      0.0592
  594.0000      0.0591
  595.0000      0.0589
  596.0000      0.0589
  597.0000      0.0588
  598.0000      0.0586
  599.0000      0.0585
  600.0000      0.0584
  601.0000      0.0584
  602.0000      0.0583
  603.0000      0.0583
  604.0000      0.0583
  605.0000      0.0583
  606.0000      0.0583
  607.0000      0.0583
  608.0000      0.0583
  609.0000      0.0583
  610.0000      0.0584
  611.0000      0.0583
  612.0000      0.0583
  613.0000      0.0584
  614.0000      0.0584
  615.0000      0.0584
  616.0000      0.0583
  617.0000      0.0583
  618.0000      0.0583
  619.0000      0.0582
  620.0000      0.0581
  621.0000      0.0580
  622.0000      0.0579
  623.0000      0.0579
  624.0000      0.0578
  625.0000      0.0577
  626.0000      0.0577
  627.0000      0.0576
  628.0000      0.0575
  629.0000      0.0574
  630.0000      0.0573
  631.0000      0.0572
  632.0000      0.0571
  633.0000      0.0569
  634.0000      0.0568
  635.0000      0.0568
  636.0000      0.0566
  637.0000      0.0565
  638.0000      0.0564
  639.0000      0.0563
  640.0000      0.0563
  641.0000      0.0562
  642.0000      0.0562
  643.0000      0.0561
  644.0000      0.0560
  645.0000      0.0560
  646.0000      0.0559
  647.0000      0.0559
  648.0000      0.0558
  649.0000      0.0558
  650.0000      0.0557
  651.0000      0.0555
  652.0000      0.0553
  653.0000      0.0551
  654.0000      0.0549
  655.0000      0.0548
  656.0000      0.0547
  657.0000      0.0546
  658.0000      0.0546
  659.0000      0.0547
  660.0000      0.0547
  661.0000      0.0547
  662.0000      0.0547
  663.0000      0.0548
  664.0000      0.0547
  665.0000      0.0547
  666.0000      0.0548
  667.0000      0.0547
  668.0000      0.0547
  669.0000      0.0547
  670.0000      0.0548
  671.0000      0.0549
  672.0000      0.0551
  673.0000      0.0553
  674.0000      0.0554
  675.0000      0.0556
  676.0000      0.0557
  677.0000      0.0558
  678.0000      0.0558
  679.0000      0.0559
  680.0000      0.0560
  681.0000      0.0559
  682.0000      0.0558
  683.0000      0.0558
  684.0000      0.0556
  685.0000      0.0554
  686.0000      0.0551
  687.0000      0.0548
  688.0000      0.0545
  689.0000      0.0541
  690.0000      0.0537
  691.0000      0.0533
  692.0000      0.0530
  693.0000      0.0526
  694.0000      0.0522
  695.0000      0.0519
  696.0000      0.0516
  697.0000      0.0513
  698.0000      0.0509
  699.0000      0.0507
  700.0000      0.0505
  701.0000      0.0503
  702.0000      0.0501
  703.0000      0.0499
  704.0000      0.0498
  705.0000      0.0496
  706.0000      0.0495
  707.0000      0.0493
  708.0000      0.0492
  709.0000      0.0492
  710.0000      0.0492
  711.0000      0.0492
  712.0000      0.0491
  713.0000      0.0491
  714.0000      0.0491
  715.0000      0.0491
  716.0000      0.0491
  717.0000      0.0491
  718.0000      0.0491
  719.0000      0.0490
  720.0000      0.0490
  721.0000      0.0489
  722.0000      0.0488
  723.0000      0.0487
  724.0000      0.0486
  725.0000      0.0486
  726.0000      0.0485
  727.0000      0.0484
  728.0000      0.0483
  729.0000      0.0483
  730.0000      0.0483
  731.0000      0.0482
  732.0000      0.0482
  733.0000      0.0482
  734.0000      0.0483
  735.0000      0.0483
  736.0000      0.0476
  737.0000      0.0475
  738.0000      0.0474
  739.0000      0.0474
  740.0000      0.0473
  741.0000      0.0473
  742.0000      0.0471
  743.0000      0.0471
  744.0000      0.0470
  745.0000      0.0469
  746.0000      0.0469
  747.0000      0.0469
  748.0000      0.0467
  749.0000      0.0466
  750.0000      0.0465
  751.0000      0.0464
  752.0000      0.0463
  753.0000      0.0462
  754.0000      0.0461
  755.0000      0.0460
  756.0000      0.0460
  757.0000      0.0458
  758.0000      0.0457
  759.0000      0.0457
  760.0000      0.0456
  761.0000      0.0455
  762.0000      0.0454
  763.0000      0.0453
  764.0000      0.0452
  765.0000      0.0452
  766.0000      0.0451
  767.0000      0.0449
  768.0000      0.0449
  769.0000      0.0449
  770.0000      0.0448
  771.0000      0.0448
  772.0000      0.0447
  773.0000      0.0447
  774.0000      0.0447
  775.0000      0.0446
  776.0000      0.0446
  777.0000      0.0446
  778.0000      0.0446
  779.0000      0.0446
  780.0000      0.0447
  781.0000      0.0447
  782.0000      0.0447
  783.0000      0.0448
  784.0000      0.0448
  785.0000      0.0449
  786.0000      0.0449
  787.0000      0.0450
  788.0000      0.0450
  789.0000      0.0451
  790.0000      0.0451
  791.0000      0.0451
  792.0000      0.0451
  793.0000      0.0451
  794.0000      0.0452
  795.0000      0.0451
  796.0000      0.0451
  797.0000      0.0449
  798.0000      0.0449
  799.0000      0.0449
  800.0000      0.0448
