Start Wavelength:    200.0000
End Wavelength:    800.0000
Read Mode:  ABS
Read Average:      0.1000
Nanometer Interval:      1.0000
Time:      0.0000

  200.0000      2.5119
  201.0000      2.5756
  202.0000      2.5272
  203.0000      2.5629
  204.0000      2.6008
  205.0000      2.5302
  206.0000      2.3441
  207.0000      2.3903
  208.0000      2.3601
  209.0000      2.3067
  210.0000      2.2151
  211.0000      2.1184
  212.0000      2.0180
  213.0000      1.9442
  214.0000      1.8252
  215.0000      1.7290
  216.0000      1.6305
  217.0000      1.5174
  218.0000      1.4174
  219.0000      1.3182
  220.0000      1.2291
  221.0000      1.1279
  222.0000      1.0437
  223.0000      0.9648
  224.0000      0.8905
  225.0000      0.8185
  226.0000      0.7602
  227.0000      0.7043
  228.0000      0.6577
  229.0000      0.6107
  230.0000      0.5741
  231.0000      0.5416
  232.0000      0.5129
  233.0000      0.4860
  234.0000      0.4649
  235.0000      0.4473
  236.0000      0.4314
  237.0000      0.4171
  238.0000      0.4059
  239.0000      0.3959
  240.0000      0.3874
  241.0000      0.3798
  242.0000      0.3736
  243.0000      0.3683
  244.0000      0.3637
  245.0000      0.3591
  246.0000      0.3553
  247.0000      0.3523
  248.0000      0.3491
  249.0000      0.3461
  250.0000      0.3433
  251.0000      0.3406
  252.0000      0.3387
  253.0000      0.3363
  254.0000      0.3340
  255.0000      0.3321
  256.0000      0.3298
  257.0000      0.3281
  258.0000      0.3262
  259.0000      0.3247
  260.0000      0.3223
  261.0000      0.3203
  262.0000      0.3187
  263.0000      0.3168
  264.0000      0.3138
  265.0000      0.3122
  266.0000      0.3098
  267.0000      0.3075
  268.0000      0.3056
  269.0000      0.3036
  270.0000      0.3008
  271.0000      0.2989
  272.0000      0.2963
  273.0000      0.2941
  274.0000      0.2914
  275.0000      0.2900
  276.0000      0.2872
  277.0000      0.2849
  278.0000      0.2825
  279.0000      0.2794
  280.0000      0.2774
  281.0000      0.2750
  282.0000      0.2718
  283.0000      0.2693
  284.0000      0.2669
  285.0000      0.2635
  286.0000      0.2610
  287.0000      0.2585
  288.0000      0.2558
  289.0000      0.2534
  290.0000      0.2506
  291.0000      0.2476
  292.0000      0.2446
  293.0000      0.2424
  294.0000      0.2403
  295.0000      0.2370
  296.0000      0.2348
  297.0000      0.2327
  298.0000      0.2302
  299.0000      0.2291
  300.0000      0.2262
  301.0000      0.2238
  302.0000      0.2220
  303.0000      0.2201
  304.0000      0.2178
  305.0000      0.2156
  306.0000      0.2136
  307.0000      0.2118
  308.0000      0.2100
  309.0000      0.2088
  310.0000      0.2062
  311.0000      0.2036
  312.0000      0.2028
  313.0000      0.2002
  314.0000      0.1987
  315.0000      0.1963
  316.0000      0.1940
  317.0000      0.1928
  318.0000      0.1914
  319.0000      0.1898
  320.0000      0.1884
  321.0000      0.1869
  322.0000      0.1856
  323.0000      0.1834
  324.0000      0.1821
  325.0000      0.1809
  326.0000      0.1787
  327.0000      0.1779
  328.0000      0.1765
  329.0000      0.1751
  330.0000      0.1739
  331.0000      0.1724
  332.0000      0.1715
  333.0000      0.1702
  334.0000      0.1692
  335.0000      0.1681
  336.0000      0.1669
  337.0000      0.1660
  338.0000      0.1644
  339.0000      0.1633
  340.0000      0.1628
  341.0000      0.1616
  342.0000      0.1606
  343.0000      0.1595
  344.0000      0.1586
  345.0000      0.1574
  346.0000      0.1559
  347.0000      0.1550
  348.0000      0.1541
  349.0000      0.1533
  350.0000      0.1524
  351.0000      0.1512
  352.0000      0.1503
  353.0000      0.1493
  354.0000      0.1487
  355.0000      0.1477
  356.0000      0.1469
  357.0000      0.1476
  358.0000      0.1467
  359.0000      0.1450
  360.0000      0.1465
  361.0000      0.1457
  362.0000      0.1429
  363.0000      0.1416
  364.0000      0.1426
  365.0000      0.1397
  366.0000      0.1406
  367.0000      0.1404
  368.0000      0.1383
  369.0000      0.1388
  370.0000      0.1373
  371.0000      0.1360
  372.0000      0.1360
  373.0000      0.1340
  374.0000      0.1345
  375.0000      0.1332
  376.0000      0.1321
  377.0000      0.1316
  378.0000      0.1309
  379.0000      0.1300
  380.0000      0.1305
  381.0000      0.1291
  382.0000      0.1279
  383.0000      0.1272
  384.0000      0.1268
  385.0000      0.1269
  386.0000      0.1255
  387.0000      0.1247
  388.0000      0.1236
  389.0000      0.1234
  390.0000      0.1231
  391.0000      0.1230
  392.0000      0.1218
  393.0000      0.1211
  394.0000      0.1206
  395.0000      0.1198
  396.0000      0.1190
  397.0000      0.1191
  398.0000      0.1177
  399.0000      0.1171
  400.0000      0.1163
  401.0000      0.1157
  402.0000      0.1148
  403.0000      0.1148
  404.0000      0.1143
  405.0000      0.1139
  406.0000      0.1127
  407.0000      0.1126
  408.0000      0.1124
  409.0000      0.1119
  410.0000      0.1109
  411.0000      0.1105
  412.0000      0.1106
  413.0000      0.1097
  414.0000      0.1092
  415.0000      0.1089
  416.0000      0.1081
  417.0000      0.1076
  418.0000      0.1073
  419.0000      0.1068
  420.0000      0.1064
  421.0000      0.1059
  422.0000      0.1055
  423.0000      0.1051
  424.0000      0.1046
  425.0000      0.1043
  426.0000      0.1038
  427.0000      0.1034
  428.0000      0.1030
  429.0000      0.1028
  430.0000      0.1024
  431.0000      0.1018
  432.0000      0.1014
  433.0000      0.1010
  434.0000      0.1006
  435.0000      0.1002
  436.0000      0.0999
  437.0000      0.0994
  438.0000      0.0990
  439.0000      0.0986
  440.0000      0.0982
  441.0000      0.0977
  442.0000      0.0973
  443.0000      0.0969
  444.0000      0.0966
  445.0000      0.0962
  446.0000      0.0958
  447.0000      0.0954
  448.0000      0.0949
  449.0000      0.0946
  450.0000      0.0941
  451.0000      0.0937
  452.0000      0.0934
  453.0000      0.0929
  454.0000      0.0926
  455.0000      0.0922
  456.0000      0.0917
  457.0000      0.0914
  458.0000      0.0910
  459.0000      0.0906
  460.0000      0.0903
  461.0000      0.0899
  462.0000      0.0894
  463.0000      0.0891
  464.0000      0.0888
  465.0000      0.0885
  466.0000      0.0882
  467.0000      0.0879
  468.0000      0.0876
  469.0000      0.0873
  470.0000      0.0869
  471.0000      0.0866
  472.0000      0.0862
  473.0000      0.0859
  474.0000      0.0855
  475.0000      0.0852
  476.0000      0.0849
  477.0000      0.0846
  478.0000      0.0842
  479.0000      0.0840
  480.0000      0.0838
  481.0000      0.0835
  482.0000      0.0832
  483.0000      0.0830
  484.0000      0.0828
  485.0000      0.0826
  486.0000      0.0823
  487.0000      0.0820
  488.0000      0.0818
  489.0000      0.0816
  490.0000      0.0813
  491.0000      0.0811
  492.0000      0.0809
  493.0000      0.0807
  494.0000      0.0806
  495.0000      0.0804
  496.0000      0.0802
  497.0000      0.0800
  498.0000      0.0798
  499.0000      0.0796
  500.0000      0.0794
  501.0000      0.0792
  502.0000      0.0790
  503.0000      0.0789
  504.0000      0.0787
  505.0000      0.0785
  506.0000      0.0783
  507.0000      0.0781
  508.0000      0.0779
  509.0000      0.0776
  510.0000      0.0774
  511.0000      0.0772
  512.0000      0.0770
  513.0000      0.0768
  514.0000      0.0766
  515.0000      0.0764
  516.0000      0.0762
  517.0000      0.0760
  518.0000      0.0759
  519.0000      0.0757
  520.0000      0.0755
  521.0000      0.0753
  522.0000      0.0752
  523.0000      0.0749
  524.0000      0.0747
  525.0000      0.0745
  526.0000      0.0743
  527.0000      0.0741
  528.0000      0.0740
  529.0000      0.0737
  530.0000      0.0735
  531.0000      0.0732
  532.0000      0.0731
  533.0000      0.0730
  534.0000      0.0729
  535.0000      0.0728
  536.0000      0.0726
  537.0000      0.0724
  538.0000      0.0722
  539.0000      0.0721
  540.0000      0.0719
  541.0000      0.0718
  542.0000      0.0717
  543.0000      0.0716
  544.0000      0.0714
  545.0000      0.0713
  546.0000      0.0711
  547.0000      0.0710
  548.0000      0.0708
  549.0000      0.0706
  550.0000      0.0705
  551.0000      0.0703
  552.0000      0.0702
  553.0000      0.0700
  554.0000      0.0698
  555.0000      0.0697
  556.0000      0.0696
  557.0000      0.0698
  558.0000      0.0694
  559.0000      0.0691
  560.0000      0.0689
  561.0000      0.0686
  562.0000      0.0686
  563.0000      0.0684
  564.0000      0.0683
  565.0000      0.0682
  566.0000      0.0680
  567.0000      0.0679
  568.0000      0.0677
  569.0000      0.0676
  570.0000      0.0674
  571.0000      0.0673
  572.0000      0.0672
  573.0000      0.0671
  574.0000      0.0669
  575.0000      0.0668
  576.0000      0.0667
  577.0000      0.0666
  578.0000      0.0665
  579.0000      0.0663
  580.0000      0.0661
  581.0000      0.0660
  582.0000      0.0659
  583.0000      0.0657
  584.0000      0.0656
  585.0000      0.0655
  586.0000      0.0654
  587.0000      0.0654
  588.0000      0.0653
  589.0000      0.0652
  590.0000      0.0652
  591.0000      0.0651
  592.0000      0.0649
  593.0000      0.0648
  594.0000      0.0646
  595.0000      0.0646
  596.0000      0.0645
  597.0000      0.0644
  598.0000      0.0643
  599.0000      0.0642
  600.0000      0.0641
  601.0000      0.0640
  602.0000      0.0638
  603.0000      0.0637
  604.0000      0.0636
  605.0000      0.0635
  606.0000      0.0634
  607.0000      0.0633
  608.0000      0.0632
  609.0000      0.0630
  610.0000      0.0630
  611.0000      0.0628
  612.0000      0.0628
  613.0000      0.0628
  614.0000      0.0627
  615.0000      0.0626
  616.0000      0.0624
  617.0000      0.0624
  618.0000      0.0623
  619.0000      0.0621
  620.0000      0.0620
  621.0000      0.0619
  622.0000      0.0619
  623.0000      0.0618
  624.0000      0.0617
  625.0000      0.0616
  626.0000      0.0616
  627.0000      0.0615
  628.0000      0.0614
  629.0000      0.0613
  630.0000      0.0612
  631.0000      0.0612
  632.0000      0.0611
  633.0000      0.0609
  634.0000      0.0607
  635.0000      0.0606
  636.0000      0.0605
  637.0000      0.0604
  638.0000      0.0603
  639.0000      0.0602
  640.0000      0.0601
  641.0000      0.0600
  642.0000      0.0599
  643.0000      0.0598
  644.0000      0.0597
  645.0000      0.0596
  646.0000      0.0595
  647.0000      0.0594
  648.0000      0.0593
  649.0000      0.0592
  650.0000      0.0591
  651.0000      0.0590
  652.0000      0.0589
  653.0000      0.0589
  654.0000      0.0587
  655.0000      0.0586
  656.0000      0.0585
  657.0000      0.0584
  658.0000      0.0583
  659.0000      0.0582
  660.0000      0.0581
  661.0000      0.0580
  662.0000      0.0580
  663.0000      0.0579
  664.0000      0.0579
  665.0000      0.0578
  666.0000      0.0578
  667.0000      0.0578
  668.0000      0.0578
  669.0000      0.0578
  670.0000      0.0577
  671.0000      0.0577
  672.0000      0.0576
  673.0000      0.0574
  674.0000      0.0573
  675.0000      0.0573
  676.0000      0.0573
  677.0000      0.0573
  678.0000      0.0572
  679.0000      0.0572
  680.0000      0.0572
  681.0000      0.0571
  682.0000      0.0571
  683.0000      0.0570
  684.0000      0.0568
  685.0000      0.0567
  686.0000      0.0565
  687.0000      0.0562
  688.0000      0.0560
  689.0000      0.0558
  690.0000      0.0556
  691.0000      0.0555
  692.0000      0.0554
  693.0000      0.0553
  694.0000      0.0551
  695.0000      0.0550
  696.0000      0.0548
  697.0000      0.0548
  698.0000      0.0546
  699.0000      0.0544
  700.0000      0.0542
  701.0000      0.0540
  702.0000      0.0538
  703.0000      0.0536
  704.0000      0.0534
  705.0000      0.0532
  706.0000      0.0530
  707.0000      0.0528
  708.0000      0.0527
  709.0000      0.0525
  710.0000      0.0524
  711.0000      0.0523
  712.0000      0.0522
  713.0000      0.0522
  714.0000      0.0520
  715.0000      0.0519
  716.0000      0.0519
  717.0000      0.0518
  718.0000      0.0517
  719.0000      0.0517
  720.0000      0.0516
  721.0000      0.0515
  722.0000      0.0514
  723.0000      0.0513
  724.0000      0.0513
  725.0000      0.0512
  726.0000      0.0511
  727.0000      0.0510
  728.0000      0.0509
  729.0000      0.0508
  730.0000      0.0508
  731.0000      0.0508
  732.0000      0.0507
  733.0000      0.0507
  734.0000      0.0506
  735.0000      0.0506
  736.0000      0.0504
  737.0000      0.0503
  738.0000      0.0503
  739.0000      0.0502
  740.0000      0.0502
  741.0000      0.0501
  742.0000      0.0501
  743.0000      0.0501
  744.0000      0.0501
  745.0000      0.0501
  746.0000      0.0501
  747.0000      0.0501
  748.0000      0.0500
  749.0000      0.0499
  750.0000      0.0499
  751.0000      0.0498
  752.0000      0.0498
  753.0000      0.0498
  754.0000      0.0497
  755.0000      0.0496
  756.0000      0.0496
  757.0000      0.0495
  758.0000      0.0493
  759.0000      0.0493
  760.0000      0.0492
  761.0000      0.0491
  762.0000      0.0490
  763.0000      0.0490
  764.0000      0.0489
  765.0000      0.0489
  766.0000      0.0488
  767.0000      0.0487
  768.0000      0.0487
  769.0000      0.0486
  770.0000      0.0486
  771.0000      0.0486
  772.0000      0.0486
  773.0000      0.0486
  774.0000      0.0485
  775.0000      0.0486
  776.0000      0.0485
  777.0000      0.0485
  778.0000      0.0485
  779.0000      0.0485
  780.0000      0.0486
  781.0000      0.0486
  782.0000      0.0486
  783.0000      0.0487
  784.0000      0.0487
  785.0000      0.0487
  786.0000      0.0487
  787.0000      0.0487
  788.0000      0.0486
  789.0000      0.0486
  790.0000      0.0485
  791.0000      0.0485
  792.0000      0.0484
  793.0000      0.0484
  794.0000      0.0484
  795.0000      0.0483
  796.0000      0.0481
  797.0000      0.0480
  798.0000      0.0479
  799.0000      0.0478
  800.0000      0.0476
