Start Wavelength:    200.0000
End Wavelength:    800.0000
Read Mode:  ABS
Read Average:      0.1000
Nanometer Interval:      1.0000
Time:      0.0000

  200.0000      3.4661
  201.0000      3.5298
  202.0000      3.0914
  203.0000      2.8262
  204.0000      3.1650
  205.0000      2.9774
  206.0000      3.0068
  207.0000      2.9546
  208.0000      2.9130
  209.0000      2.9387
  210.0000      2.9611
  211.0000      2.7121
  212.0000      2.7301
  213.0000      2.6591
  214.0000      2.5773
  215.0000      2.5316
  216.0000      2.4445
  217.0000      2.2972
  218.0000      2.2076
  219.0000      2.0912
  220.0000      1.9841
  221.0000      1.8730
  222.0000      1.7979
  223.0000      1.6960
  224.0000      1.6197
  225.0000      1.5406
  226.0000      1.4741
  227.0000      1.4128
  228.0000      1.3605
  229.0000      1.3047
  230.0000      1.2625
  231.0000      1.2294
  232.0000      1.1943
  233.0000      1.1641
  234.0000      1.1394
  235.0000      1.1177
  236.0000      1.0970
  237.0000      1.0796
  238.0000      1.0641
  239.0000      1.0528
  240.0000      1.0408
  241.0000      1.0308
  242.0000      1.0221
  243.0000      1.0149
  244.0000      1.0080
  245.0000      1.0018
  246.0000      0.9960
  247.0000      0.9904
  248.0000      0.9862
  249.0000      0.9810
  250.0000      0.9775
  251.0000      0.9732
  252.0000      0.9678
  253.0000      0.9633
  254.0000      0.9597
  255.0000      0.9573
  256.0000      0.9516
  257.0000      0.9491
  258.0000      0.9451
  259.0000      0.9418
  260.0000      0.9345
  261.0000      0.9315
  262.0000      0.9267
  263.0000      0.9225
  264.0000      0.9175
  265.0000      0.9131
  266.0000      0.9084
  267.0000      0.9034
  268.0000      0.8972
  269.0000      0.8931
  270.0000      0.8872
  271.0000      0.8807
  272.0000      0.8751
  273.0000      0.8720
  274.0000      0.8666
  275.0000      0.8592
  276.0000      0.8552
  277.0000      0.8492
  278.0000      0.8434
  279.0000      0.8371
  280.0000      0.8327
  281.0000      0.8257
  282.0000      0.8202
  283.0000      0.8134
  284.0000      0.8070
  285.0000      0.8009
  286.0000      0.7955
  287.0000      0.7893
  288.0000      0.7816
  289.0000      0.7754
  290.0000      0.7694
  291.0000      0.7609
  292.0000      0.7560
  293.0000      0.7508
  294.0000      0.7445
  295.0000      0.7374
  296.0000      0.7309
  297.0000      0.7259
  298.0000      0.7208
  299.0000      0.7148
  300.0000      0.7096
  301.0000      0.7047
  302.0000      0.6983
  303.0000      0.6930
  304.0000      0.6864
  305.0000      0.6815
  306.0000      0.6762
  307.0000      0.6699
  308.0000      0.6658
  309.0000      0.6609
  310.0000      0.6563
  311.0000      0.6501
  312.0000      0.6460
  313.0000      0.6432
  314.0000      0.6380
  315.0000      0.6322
  316.0000      0.6279
  317.0000      0.6245
  318.0000      0.6208
  319.0000      0.6163
  320.0000      0.6130
  321.0000      0.6093
  322.0000      0.6031
  323.0000      0.5985
  324.0000      0.5951
  325.0000      0.5917
  326.0000      0.5884
  327.0000      0.5846
  328.0000      0.5820
  329.0000      0.5795
  330.0000      0.5752
  331.0000      0.5731
  332.0000      0.5693
  333.0000      0.5662
  334.0000      0.5636
  335.0000      0.5605
  336.0000      0.5567
  337.0000      0.5542
  338.0000      0.5510
  339.0000      0.5484
  340.0000      0.5466
  341.0000      0.5433
  342.0000      0.5409
  343.0000      0.5381
  344.0000      0.5359
  345.0000      0.5332
  346.0000      0.5307
  347.0000      0.5279
  348.0000      0.5251
  349.0000      0.5232
  350.0000      0.5217
  351.0000      0.5192
  352.0000      0.5165
  353.0000      0.5142
  354.0000      0.5125
  355.0000      0.5100
  356.0000      0.5090
  357.0000      0.5068
  358.0000      0.5046
  359.0000      0.4996
  360.0000      0.5021
  361.0000      0.5002
  362.0000      0.4951
  363.0000      0.4949
  364.0000      0.4946
  365.0000      0.4935
  366.0000      0.4917
  367.0000      0.4903
  368.0000      0.4868
  369.0000      0.4854
  370.0000      0.4830
  371.0000      0.4813
  372.0000      0.4800
  373.0000      0.4759
  374.0000      0.4771
  375.0000      0.4759
  376.0000      0.4715
  377.0000      0.4702
  378.0000      0.4690
  379.0000      0.4663
  380.0000      0.4646
  381.0000      0.4614
  382.0000      0.4601
  383.0000      0.4571
  384.0000      0.4567
  385.0000      0.4539
  386.0000      0.4521
  387.0000      0.4501
  388.0000      0.4480
  389.0000      0.4467
  390.0000      0.4448
  391.0000      0.4433
  392.0000      0.4411
  393.0000      0.4389
  394.0000      0.4379
  395.0000      0.4356
  396.0000      0.4338
  397.0000      0.4330
  398.0000      0.4313
  399.0000      0.4292
  400.0000      0.4280
  401.0000      0.4263
  402.0000      0.4240
  403.0000      0.4231
  404.0000      0.4216
  405.0000      0.4199
  406.0000      0.4181
  407.0000      0.4167
  408.0000      0.4157
  409.0000      0.4139
  410.0000      0.4123
  411.0000      0.4109
  412.0000      0.4095
  413.0000      0.4076
  414.0000      0.4066
  415.0000      0.4052
  416.0000      0.3993
  417.0000      0.3980
  418.0000      0.3968
  419.0000      0.3954
  420.0000      0.3942
  421.0000      0.3931
  422.0000      0.3918
  423.0000      0.3906
  424.0000      0.3893
  425.0000      0.3882
  426.0000      0.3867
  427.0000      0.3855
  428.0000      0.3841
  429.0000      0.3833
  430.0000      0.3820
  431.0000      0.3810
  432.0000      0.3799
  433.0000      0.3789
  434.0000      0.3780
  435.0000      0.3770
  436.0000      0.3759
  437.0000      0.3747
  438.0000      0.3738
  439.0000      0.3726
  440.0000      0.3717
  441.0000      0.3705
  442.0000      0.3694
  443.0000      0.3683
  444.0000      0.3673
  445.0000      0.3662
  446.0000      0.3652
  447.0000      0.3642
  448.0000      0.3631
  449.0000      0.3622
  450.0000      0.3611
  451.0000      0.3600
  452.0000      0.3589
  453.0000      0.3578
  454.0000      0.3566
  455.0000      0.3555
  456.0000      0.3543
  457.0000      0.3533
  458.0000      0.3522
  459.0000      0.3512
  460.0000      0.3502
  461.0000      0.3494
  462.0000      0.3486
  463.0000      0.3478
  464.0000      0.3470
  465.0000      0.3464
  466.0000      0.3456
  467.0000      0.3449
  468.0000      0.3440
  469.0000      0.3431
  470.0000      0.3421
  471.0000      0.3412
  472.0000      0.3402
  473.0000      0.3393
  474.0000      0.3385
  475.0000      0.3376
  476.0000      0.3368
  477.0000      0.3361
  478.0000      0.3351
  479.0000      0.3342
  480.0000      0.3335
  481.0000      0.3327
  482.0000      0.3318
  483.0000      0.3309
  484.0000      0.3301
  485.0000      0.3295
  486.0000      0.3287
  487.0000      0.3280
  488.0000      0.3272
  489.0000      0.3266
  490.0000      0.3258
  491.0000      0.3251
  492.0000      0.3243
  493.0000      0.3236
  494.0000      0.3229
  495.0000      0.3222
  496.0000      0.3216
  497.0000      0.3210
  498.0000      0.3203
  499.0000      0.3196
  500.0000      0.3190
  501.0000      0.3182
  502.0000      0.3175
  503.0000      0.3168
  504.0000      0.3161
  505.0000      0.3154
  506.0000      0.3148
  507.0000      0.3142
  508.0000      0.3136
  509.0000      0.3130
  510.0000      0.3125
  511.0000      0.3119
  512.0000      0.3112
  513.0000      0.3105
  514.0000      0.3098
  515.0000      0.3091
  516.0000      0.3085
  517.0000      0.3076
  518.0000      0.3068
  519.0000      0.3059
  520.0000      0.3051
  521.0000      0.3044
  522.0000      0.3037
  523.0000      0.3030
  524.0000      0.3022
  525.0000      0.3014
  526.0000      0.3007
  527.0000      0.2999
  528.0000      0.2993
  529.0000      0.2985
  530.0000      0.2977
  531.0000      0.2969
  532.0000      0.2960
  533.0000      0.2952
  534.0000      0.2944
  535.0000      0.2935
  536.0000      0.2927
  537.0000      0.2918
  538.0000      0.2911
  539.0000      0.2904
  540.0000      0.2896
  541.0000      0.2890
  542.0000      0.2882
  543.0000      0.2875
  544.0000      0.2868
  545.0000      0.2862
  546.0000      0.2855
  547.0000      0.2849
  548.0000      0.2841
  549.0000      0.2834
  550.0000      0.2827
  551.0000      0.2820
  552.0000      0.2811
  553.0000      0.2804
  554.0000      0.2798
  555.0000      0.2791
  556.0000      0.2787
  557.0000      0.2791
  558.0000      0.2787
  559.0000      0.2782
  560.0000      0.2777
  561.0000      0.2772
  562.0000      0.2767
  563.0000      0.2761
  564.0000      0.2756
  565.0000      0.2750
  566.0000      0.2744
  567.0000      0.2738
  568.0000      0.2734
  569.0000      0.2729
  570.0000      0.2724
  571.0000      0.2721
  572.0000      0.2716
  573.0000      0.2710
  574.0000      0.2705
  575.0000      0.2700
  576.0000      0.2695
  577.0000      0.2691
  578.0000      0.2686
  579.0000      0.2681
  580.0000      0.2677
  581.0000      0.2674
  582.0000      0.2672
  583.0000      0.2670
  584.0000      0.2668
  585.0000      0.2666
  586.0000      0.2663
  587.0000      0.2660
  588.0000      0.2658
  589.0000      0.2655
  590.0000      0.2653
  591.0000      0.2650
  592.0000      0.2646
  593.0000      0.2642
  594.0000      0.2640
  595.0000      0.2638
  596.0000      0.2636
  597.0000      0.2635
  598.0000      0.2632
  599.0000      0.2629
  600.0000      0.2626
  601.0000      0.2623
  602.0000      0.2618
  603.0000      0.2613
  604.0000      0.2609
  605.0000      0.2605
  606.0000      0.2600
  607.0000      0.2594
  608.0000      0.2589
  609.0000      0.2584
  610.0000      0.2582
  611.0000      0.2579
  612.0000      0.2575
  613.0000      0.2571
  614.0000      0.2567
  615.0000      0.2564
  616.0000      0.2559
  617.0000      0.2552
  618.0000      0.2548
  619.0000      0.2547
  620.0000      0.2544
  621.0000      0.2539
  622.0000      0.2534
  623.0000      0.2530
  624.0000      0.2527
  625.0000      0.2521
  626.0000      0.2515
  627.0000      0.2511
  628.0000      0.2507
  629.0000      0.2503
  630.0000      0.2497
  631.0000      0.2493
  632.0000      0.2488
  633.0000      0.2482
  634.0000      0.2477
  635.0000      0.2471
  636.0000      0.2467
  637.0000      0.2462
  638.0000      0.2456
  639.0000      0.2451
  640.0000      0.2447
  641.0000      0.2444
  642.0000      0.2440
  643.0000      0.2436
  644.0000      0.2433
  645.0000      0.2430
  646.0000      0.2425
  647.0000      0.2420
  648.0000      0.2416
  649.0000      0.2411
  650.0000      0.2407
  651.0000      0.2400
  652.0000      0.2395
  653.0000      0.2390
  654.0000      0.2386
  655.0000      0.2381
  656.0000      0.2379
  657.0000      0.2374
  658.0000      0.2370
  659.0000      0.2367
  660.0000      0.2363
  661.0000      0.2358
  662.0000      0.2354
  663.0000      0.2350
  664.0000      0.2347
  665.0000      0.2343
  666.0000      0.2340
  667.0000      0.2337
  668.0000      0.2333
  669.0000      0.2330
  670.0000      0.2327
  671.0000      0.2322
  672.0000      0.2318
  673.0000      0.2314
  674.0000      0.2310
  675.0000      0.2306
  676.0000      0.2302
  677.0000      0.2298
  678.0000      0.2293
  679.0000      0.2288
  680.0000      0.2283
  681.0000      0.2280
  682.0000      0.2276
  683.0000      0.2272
  684.0000      0.2268
  685.0000      0.2265
  686.0000      0.2261
  687.0000      0.2256
  688.0000      0.2251
  689.0000      0.2248
  690.0000      0.2243
  691.0000      0.2239
  692.0000      0.2236
  693.0000      0.2232
  694.0000      0.2226
  695.0000      0.2223
  696.0000      0.2219
  697.0000      0.2214
  698.0000      0.2209
  699.0000      0.2205
  700.0000      0.2201
  701.0000      0.2198
  702.0000      0.2195
  703.0000      0.2191
  704.0000      0.2187
  705.0000      0.2183
  706.0000      0.2178
  707.0000      0.2175
  708.0000      0.2172
  709.0000      0.2169
  710.0000      0.2165
  711.0000      0.2162
  712.0000      0.2159
  713.0000      0.2154
  714.0000      0.2150
  715.0000      0.2147
  716.0000      0.2145
  717.0000      0.2143
  718.0000      0.2142
  719.0000      0.2143
  720.0000      0.2142
  721.0000      0.2141
  722.0000      0.2140
  723.0000      0.2139
  724.0000      0.2138
  725.0000      0.2136
  726.0000      0.2135
  727.0000      0.2133
  728.0000      0.2132
  729.0000      0.2130
  730.0000      0.2129
  731.0000      0.2128
  732.0000      0.2126
  733.0000      0.2123
  734.0000      0.2119
  735.0000      0.2116
  736.0000      0.2090
  737.0000      0.2087
  738.0000      0.2083
  739.0000      0.2080
  740.0000      0.2077
  741.0000      0.2074
  742.0000      0.2071
  743.0000      0.2068
  744.0000      0.2064
  745.0000      0.2061
  746.0000      0.2059
  747.0000      0.2056
  748.0000      0.2052
  749.0000      0.2051
  750.0000      0.2049
  751.0000      0.2049
  752.0000      0.2047
  753.0000      0.2047
  754.0000      0.2046
  755.0000      0.2043
  756.0000      0.2043
  757.0000      0.2042
  758.0000      0.2040
  759.0000      0.2037
  760.0000      0.2034
  761.0000      0.2033
  762.0000      0.2031
  763.0000      0.2030
  764.0000      0.2030
  765.0000      0.2028
  766.0000      0.2025
  767.0000      0.2024
  768.0000      0.2024
  769.0000      0.2023
  770.0000      0.2023
  771.0000      0.2021
  772.0000      0.2020
  773.0000      0.2020
  774.0000      0.2019
  775.0000      0.2017
  776.0000      0.2015
  777.0000      0.2013
  778.0000      0.2011
  779.0000      0.2008
  780.0000      0.2005
  781.0000      0.2003
  782.0000      0.2000
  783.0000      0.1996
  784.0000      0.1994
  785.0000      0.1990
  786.0000      0.1987
  787.0000      0.1982
  788.0000      0.1977
  789.0000      0.1972
  790.0000      0.1967
  791.0000      0.1964
  792.0000      0.1960
  793.0000      0.1959
  794.0000      0.1958
  795.0000      0.1956
  796.0000      0.1955
  797.0000      0.1954
  798.0000      0.1954
  799.0000      0.1954
  800.0000      0.1954
