Start Wavelength:    200.0000
End Wavelength:    800.0000
Read Mode:  ABS
Read Average:      0.1000
Nanometer Interval:      1.0000
Time:      0.0000

  200.0000      1.0975
  201.0000      1.0488
  202.0000      1.0286
  203.0000      1.0066
  204.0000      0.9842
  205.0000      0.9659
  206.0000      0.9388
  207.0000      0.9216
  208.0000      0.9010
  209.0000      0.8786
  210.0000      0.8543
  211.0000      0.8303
  212.0000      0.8082
  213.0000      0.7810
  214.0000      0.7570
  215.0000      0.7343
  216.0000      0.7111
  217.0000      0.6848
  218.0000      0.6615
  219.0000      0.6397
  220.0000      0.6190
  221.0000      0.5969
  222.0000      0.5781
  223.0000      0.5604
  224.0000      0.5437
  225.0000      0.5270
  226.0000      0.5127
  227.0000      0.5000
  228.0000      0.4881
  229.0000      0.4755
  230.0000      0.4664
  231.0000      0.4570
  232.0000      0.4490
  233.0000      0.4405
  234.0000      0.4332
  235.0000      0.4273
  236.0000      0.4210
  237.0000      0.4149
  238.0000      0.4103
  239.0000      0.4057
  240.0000      0.4016
  241.0000      0.3971
  242.0000      0.3938
  243.0000      0.3905
  244.0000      0.3876
  245.0000      0.3847
  246.0000      0.3821
  247.0000      0.3797
  248.0000      0.3768
  249.0000      0.3745
  250.0000      0.3725
  251.0000      0.3701
  252.0000      0.3678
  253.0000      0.3657
  254.0000      0.3635
  255.0000      0.3618
  256.0000      0.3597
  257.0000      0.3574
  258.0000      0.3552
  259.0000      0.3535
  260.0000      0.3513
  261.0000      0.3492
  262.0000      0.3471
  263.0000      0.3442
  264.0000      0.3418
  265.0000      0.3399
  266.0000      0.3367
  267.0000      0.3339
  268.0000      0.3316
  269.0000      0.3285
  270.0000      0.3264
  271.0000      0.3238
  272.0000      0.3207
  273.0000      0.3180
  274.0000      0.3153
  275.0000      0.3125
  276.0000      0.3099
  277.0000      0.3072
  278.0000      0.3039
  279.0000      0.3010
  280.0000      0.2986
  281.0000      0.2955
  282.0000      0.2923
  283.0000      0.2894
  284.0000      0.2865
  285.0000      0.2831
  286.0000      0.2798
  287.0000      0.2768
  288.0000      0.2737
  289.0000      0.2708
  290.0000      0.2679
  291.0000      0.2651
  292.0000      0.2623
  293.0000      0.2598
  294.0000      0.2571
  295.0000      0.2538
  296.0000      0.2512
  297.0000      0.2477
  298.0000      0.2449
  299.0000      0.2429
  300.0000      0.2403
  301.0000      0.2367
  302.0000      0.2340
  303.0000      0.2326
  304.0000      0.2298
  305.0000      0.2272
  306.0000      0.2248
  307.0000      0.2227
  308.0000      0.2208
  309.0000      0.2190
  310.0000      0.2171
  311.0000      0.2149
  312.0000      0.2134
  313.0000      0.2107
  314.0000      0.2089
  315.0000      0.2069
  316.0000      0.2051
  317.0000      0.2038
  318.0000      0.2014
  319.0000      0.1995
  320.0000      0.1978
  321.0000      0.1973
  322.0000      0.1952
  323.0000      0.1937
  324.0000      0.1918
  325.0000      0.1912
  326.0000      0.1892
  327.0000      0.1875
  328.0000      0.1859
  329.0000      0.1839
  330.0000      0.1831
  331.0000      0.1817
  332.0000      0.1799
  333.0000      0.1783
  334.0000      0.1769
  335.0000      0.1759
  336.0000      0.1743
  337.0000      0.1728
  338.0000      0.1712
  339.0000      0.1699
  340.0000      0.1691
  341.0000      0.1674
  342.0000      0.1657
  343.0000      0.1649
  344.0000      0.1639
  345.0000      0.1625
  346.0000      0.1613
  347.0000      0.1598
  348.0000      0.1586
  349.0000      0.1576
  350.0000      0.1566
  351.0000      0.1555
  352.0000      0.1545
  353.0000      0.1535
  354.0000      0.1524
  355.0000      0.1507
  356.0000      0.1499
  357.0000      0.1500
  358.0000      0.1501
  359.0000      0.1489
  360.0000      0.1482
  361.0000      0.1473
  362.0000      0.1441
  363.0000      0.1442
  364.0000      0.1450
  365.0000      0.1430
  366.0000      0.1421
  367.0000      0.1409
  368.0000      0.1404
  369.0000      0.1390
  370.0000      0.1382
  371.0000      0.1384
  372.0000      0.1368
  373.0000      0.1358
  374.0000      0.1339
  375.0000      0.1343
  376.0000      0.1325
  377.0000      0.1332
  378.0000      0.1319
  379.0000      0.1300
  380.0000      0.1294
  381.0000      0.1294
  382.0000      0.1281
  383.0000      0.1271
  384.0000      0.1266
  385.0000      0.1258
  386.0000      0.1250
  387.0000      0.1235
  388.0000      0.1231
  389.0000      0.1230
  390.0000      0.1221
  391.0000      0.1213
  392.0000      0.1204
  393.0000      0.1199
  394.0000      0.1195
  395.0000      0.1187
  396.0000      0.1177
  397.0000      0.1169
  398.0000      0.1164
  399.0000      0.1158
  400.0000      0.1153
  401.0000      0.1141
  402.0000      0.1139
  403.0000      0.1135
  404.0000      0.1125
  405.0000      0.1117
  406.0000      0.1117
  407.0000      0.1109
  408.0000      0.1105
  409.0000      0.1098
  410.0000      0.1089
  411.0000      0.1089
  412.0000      0.1086
  413.0000      0.1074
  414.0000      0.1075
  415.0000      0.1077
  416.0000      0.1056
  417.0000      0.1051
  418.0000      0.1045
  419.0000      0.1041
  420.0000      0.1036
  421.0000      0.1031
  422.0000      0.1027
  423.0000      0.1022
  424.0000      0.1015
  425.0000      0.1009
  426.0000      0.1007
  427.0000      0.1000
  428.0000      0.0996
  429.0000      0.0992
  430.0000      0.0987
  431.0000      0.0982
  432.0000      0.0977
  433.0000      0.0974
  434.0000      0.0972
  435.0000      0.0967
  436.0000      0.0965
  437.0000      0.0960
  438.0000      0.0957
  439.0000      0.0955
  440.0000      0.0950
  441.0000      0.0946
  442.0000      0.0942
  443.0000      0.0940
  444.0000      0.0935
  445.0000      0.0931
  446.0000      0.0927
  447.0000      0.0923
  448.0000      0.0918
  449.0000      0.0914
  450.0000      0.0910
  451.0000      0.0907
  452.0000      0.0904
  453.0000      0.0902
  454.0000      0.0899
  455.0000      0.0896
  456.0000      0.0893
  457.0000      0.0889
  458.0000      0.0886
  459.0000      0.0884
  460.0000      0.0881
  461.0000      0.0878
  462.0000      0.0877
  463.0000      0.0875
  464.0000      0.0873
  465.0000      0.0870
  466.0000      0.0869
  467.0000      0.0868
  468.0000      0.0865
  469.0000      0.0863
  470.0000      0.0860
  471.0000      0.0858
  472.0000      0.0854
  473.0000      0.0850
  474.0000      0.0846
  475.0000      0.0842
  476.0000      0.0838
  477.0000      0.0835
  478.0000      0.0831
  479.0000      0.0829
  480.0000      0.0827
  481.0000      0.0826
  482.0000      0.0826
  483.0000      0.0830
  484.0000      0.0833
  485.0000      0.0835
  486.0000      0.0837
  487.0000      0.0836
  488.0000      0.0833
  489.0000      0.0831
  490.0000      0.0829
  491.0000      0.0827
  492.0000      0.0825
  493.0000      0.0823
  494.0000      0.0822
  495.0000      0.0820
  496.0000      0.0818
  497.0000      0.0816
  498.0000      0.0815
  499.0000      0.0812
  500.0000      0.0809
  501.0000      0.0804
  502.0000      0.0801
  503.0000      0.0797
  504.0000      0.0793
  505.0000      0.0789
  506.0000      0.0784
  507.0000      0.0779
  508.0000      0.0775
  509.0000      0.0772
  510.0000      0.0768
  511.0000      0.0764
  512.0000      0.0760
  513.0000      0.0756
  514.0000      0.0753
  515.0000      0.0749
  516.0000      0.0746
  517.0000      0.0742
  518.0000      0.0741
  519.0000      0.0738
  520.0000      0.0736
  521.0000      0.0734
  522.0000      0.0732
  523.0000      0.0730
  524.0000      0.0727
  525.0000      0.0724
  526.0000      0.0724
  527.0000      0.0723
  528.0000      0.0722
  529.0000      0.0721
  530.0000      0.0721
  531.0000      0.0720
  532.0000      0.0719
  533.0000      0.0719
  534.0000      0.0719
  535.0000      0.0718
  536.0000      0.0719
  537.0000      0.0719
  538.0000      0.0719
  539.0000      0.0720
  540.0000      0.0721
  541.0000      0.0721
  542.0000      0.0723
  543.0000      0.0722
  544.0000      0.0721
  545.0000      0.0719
  546.0000      0.0717
  547.0000      0.0715
  548.0000      0.0713
  549.0000      0.0712
  550.0000      0.0711
  551.0000      0.0710
  552.0000      0.0708
  553.0000      0.0706
  554.0000      0.0705
  555.0000      0.0703
  556.0000      0.0702
  557.0000      0.0686
  558.0000      0.0684
  559.0000      0.0681
  560.0000      0.0680
  561.0000      0.0678
  562.0000      0.0676
  563.0000      0.0675
  564.0000      0.0673
  565.0000      0.0673
  566.0000      0.0672
  567.0000      0.0672
  568.0000      0.0672
  569.0000      0.0672
  570.0000      0.0671
  571.0000      0.0671
  572.0000      0.0669
  573.0000      0.0668
  574.0000      0.0667
  575.0000      0.0665
  576.0000      0.0664
  577.0000      0.0663
  578.0000      0.0661
  579.0000      0.0659
  580.0000      0.0657
  581.0000      0.0656
  582.0000      0.0655
  583.0000      0.0654
  584.0000      0.0654
  585.0000      0.0654
  586.0000      0.0655
  587.0000      0.0655
  588.0000      0.0654
  589.0000      0.0652
  590.0000      0.0651
  591.0000      0.0648
  592.0000      0.0645
  593.0000      0.0641
  594.0000      0.0638
  595.0000      0.0635
  596.0000      0.0633
  597.0000      0.0632
  598.0000      0.0630
  599.0000      0.0629
  600.0000      0.0627
  601.0000      0.0626
  602.0000      0.0624
  603.0000      0.0621
  604.0000      0.0618
  605.0000      0.0616
  606.0000      0.0613
  607.0000      0.0611
  608.0000      0.0610
  609.0000      0.0608
  610.0000      0.0607
  611.0000      0.0606
  612.0000      0.0604
  613.0000      0.0602
  614.0000      0.0599
  615.0000      0.0598
  616.0000      0.0596
  617.0000      0.0593
  618.0000      0.0592
  619.0000      0.0591
  620.0000      0.0590
  621.0000      0.0588
  622.0000      0.0587
  623.0000      0.0587
  624.0000      0.0586
  625.0000      0.0584
  626.0000      0.0583
  627.0000      0.0582
  628.0000      0.0581
  629.0000      0.0580
  630.0000      0.0579
  631.0000      0.0578
  632.0000      0.0576
  633.0000      0.0576
  634.0000      0.0574
  635.0000      0.0573
  636.0000      0.0571
  637.0000      0.0570
  638.0000      0.0567
  639.0000      0.0566
  640.0000      0.0564
  641.0000      0.0563
  642.0000      0.0561
  643.0000      0.0560
  644.0000      0.0559
  645.0000      0.0558
  646.0000      0.0557
  647.0000      0.0556
  648.0000      0.0555
  649.0000      0.0554
  650.0000      0.0553
  651.0000      0.0553
  652.0000      0.0552
  653.0000      0.0551
  654.0000      0.0551
  655.0000      0.0550
  656.0000      0.0550
  657.0000      0.0550
  658.0000      0.0551
  659.0000      0.0550
  660.0000      0.0550
  661.0000      0.0549
  662.0000      0.0549
  663.0000      0.0548
  664.0000      0.0547
  665.0000      0.0546
  666.0000      0.0546
  667.0000      0.0546
  668.0000      0.0545
  669.0000      0.0545
  670.0000      0.0545
  671.0000      0.0543
  672.0000      0.0543
  673.0000      0.0542
  674.0000      0.0541
  675.0000      0.0540
  676.0000      0.0539
  677.0000      0.0538
  678.0000      0.0537
  679.0000      0.0536
  680.0000      0.0534
  681.0000      0.0534
  682.0000      0.0531
  683.0000      0.0531
  684.0000      0.0529
  685.0000      0.0528
  686.0000      0.0527
  687.0000      0.0526
  688.0000      0.0525
  689.0000      0.0524
  690.0000      0.0523
  691.0000      0.0523
  692.0000      0.0521
  693.0000      0.0520
  694.0000      0.0520
  695.0000      0.0519
  696.0000      0.0519
  697.0000      0.0518
  698.0000      0.0517
  699.0000      0.0517
  700.0000      0.0515
  701.0000      0.0514
  702.0000      0.0512
  703.0000      0.0509
  704.0000      0.0508
  705.0000      0.0506
  706.0000      0.0506
  707.0000      0.0504
  708.0000      0.0503
  709.0000      0.0502
  710.0000      0.0502
  711.0000      0.0502
  712.0000      0.0501
  713.0000      0.0500
  714.0000      0.0499
  715.0000      0.0498
  716.0000      0.0496
  717.0000      0.0495
  718.0000      0.0495
  719.0000      0.0493
  720.0000      0.0492
  721.0000      0.0491
  722.0000      0.0490
  723.0000      0.0490
  724.0000      0.0489
  725.0000      0.0489
  726.0000      0.0487
  727.0000      0.0486
  728.0000      0.0485
  729.0000      0.0484
  730.0000      0.0483
  731.0000      0.0481
  732.0000      0.0480
  733.0000      0.0480
  734.0000      0.0479
  735.0000      0.0478
  736.0000      0.0473
  737.0000      0.0473
  738.0000      0.0472
  739.0000      0.0470
  740.0000      0.0470
  741.0000      0.0469
  742.0000      0.0468
  743.0000      0.0467
  744.0000      0.0467
  745.0000      0.0465
  746.0000      0.0464
  747.0000      0.0463
  748.0000      0.0463
  749.0000      0.0462
  750.0000      0.0460
  751.0000      0.0460
  752.0000      0.0459
  753.0000      0.0459
  754.0000      0.0458
  755.0000      0.0457
  756.0000      0.0458
  757.0000      0.0457
  758.0000      0.0457
  759.0000      0.0457
  760.0000      0.0455
  761.0000      0.0455
  762.0000      0.0455
  763.0000      0.0454
  764.0000      0.0453
  765.0000      0.0454
  766.0000      0.0454
  767.0000      0.0453
  768.0000      0.0452
  769.0000      0.0452
  770.0000      0.0451
  771.0000      0.0451
  772.0000      0.0451
  773.0000      0.0450
  774.0000      0.0451
  775.0000      0.0450
  776.0000      0.0449
  777.0000      0.0449
  778.0000      0.0448
  779.0000      0.0448
  780.0000      0.0447
  781.0000      0.0446
  782.0000      0.0446
  783.0000      0.0445
  784.0000      0.0445
  785.0000      0.0445
  786.0000      0.0444
  787.0000      0.0442
  788.0000      0.0441
  789.0000      0.0440
  790.0000      0.0439
  791.0000      0.0437
  792.0000      0.0436
  793.0000      0.0436
  794.0000      0.0435
  795.0000      0.0433
  796.0000      0.0432
  797.0000      0.0431
  798.0000      0.0430
  799.0000      0.0429
  800.0000      0.0427
