Start Wavelength:    200.0000
End Wavelength:    800.0000
Read Mode:  ABS
Read Average:      0.1000
Nanometer Interval:      1.0000
Time:      0.0000

  200.0000      1.0572
  201.0000      1.0115
  202.0000      0.9959
  203.0000      0.9752
  204.0000      0.9545
  205.0000      0.9324
  206.0000      0.9099
  207.0000      0.8938
  208.0000      0.8719
  209.0000      0.8503
  210.0000      0.8260
  211.0000      0.8050
  212.0000      0.7828
  213.0000      0.7584
  214.0000      0.7355
  215.0000      0.7125
  216.0000      0.6897
  217.0000      0.6654
  218.0000      0.6436
  219.0000      0.6227
  220.0000      0.6027
  221.0000      0.5816
  222.0000      0.5629
  223.0000      0.5463
  224.0000      0.5295
  225.0000      0.5133
  226.0000      0.4991
  227.0000      0.4874
  228.0000      0.4762
  229.0000      0.4642
  230.0000      0.4545
  231.0000      0.4457
  232.0000      0.4379
  233.0000      0.4297
  234.0000      0.4225
  235.0000      0.4167
  236.0000      0.4101
  237.0000      0.4047
  238.0000      0.3999
  239.0000      0.3952
  240.0000      0.3910
  241.0000      0.3868
  242.0000      0.3834
  243.0000      0.3804
  244.0000      0.3771
  245.0000      0.3742
  246.0000      0.3714
  247.0000      0.3695
  248.0000      0.3666
  249.0000      0.3641
  250.0000      0.3625
  251.0000      0.3607
  252.0000      0.3577
  253.0000      0.3559
  254.0000      0.3539
  255.0000      0.3520
  256.0000      0.3502
  257.0000      0.3481
  258.0000      0.3464
  259.0000      0.3445
  260.0000      0.3427
  261.0000      0.3403
  262.0000      0.3386
  263.0000      0.3362
  264.0000      0.3336
  265.0000      0.3317
  266.0000      0.3287
  267.0000      0.3256
  268.0000      0.3234
  269.0000      0.3208
  270.0000      0.3184
  271.0000      0.3156
  272.0000      0.3128
  273.0000      0.3103
  274.0000      0.3079
  275.0000      0.3050
  276.0000      0.3021
  277.0000      0.2994
  278.0000      0.2961
  279.0000      0.2942
  280.0000      0.2904
  281.0000      0.2875
  282.0000      0.2839
  283.0000      0.2811
  284.0000      0.2782
  285.0000      0.2755
  286.0000      0.2717
  287.0000      0.2687
  288.0000      0.2655
  289.0000      0.2632
  290.0000      0.2597
  291.0000      0.2565
  292.0000      0.2532
  293.0000      0.2508
  294.0000      0.2477
  295.0000      0.2441
  296.0000      0.2418
  297.0000      0.2387
  298.0000      0.2363
  299.0000      0.2345
  300.0000      0.2319
  301.0000      0.2291
  302.0000      0.2265
  303.0000      0.2251
  304.0000      0.2222
  305.0000      0.2200
  306.0000      0.2175
  307.0000      0.2155
  308.0000      0.2132
  309.0000      0.2110
  310.0000      0.2089
  311.0000      0.2075
  312.0000      0.2061
  313.0000      0.2031
  314.0000      0.2012
  315.0000      0.1999
  316.0000      0.1975
  317.0000      0.1960
  318.0000      0.1938
  319.0000      0.1916
  320.0000      0.1900
  321.0000      0.1892
  322.0000      0.1861
  323.0000      0.1841
  324.0000      0.1826
  325.0000      0.1819
  326.0000      0.1805
  327.0000      0.1789
  328.0000      0.1772
  329.0000      0.1757
  330.0000      0.1750
  331.0000      0.1738
  332.0000      0.1720
  333.0000      0.1703
  334.0000      0.1690
  335.0000      0.1679
  336.0000      0.1663
  337.0000      0.1650
  338.0000      0.1638
  339.0000      0.1626
  340.0000      0.1616
  341.0000      0.1604
  342.0000      0.1591
  343.0000      0.1575
  344.0000      0.1565
  345.0000      0.1558
  346.0000      0.1545
  347.0000      0.1530
  348.0000      0.1520
  349.0000      0.1512
  350.0000      0.1499
  351.0000      0.1491
  352.0000      0.1481
  353.0000      0.1475
  354.0000      0.1466
  355.0000      0.1456
  356.0000      0.1447
  357.0000      0.1428
  358.0000      0.1381
  359.0000      0.1384
  360.0000      0.1385
  361.0000      0.1364
  362.0000      0.1346
  363.0000      0.1349
  364.0000      0.1364
  365.0000      0.1349
  366.0000      0.1333
  367.0000      0.1330
  368.0000      0.1322
  369.0000      0.1299
  370.0000      0.1287
  371.0000      0.1285
  372.0000      0.1268
  373.0000      0.1264
  374.0000      0.1265
  375.0000      0.1251
  376.0000      0.1262
  377.0000      0.1252
  378.0000      0.1242
  379.0000      0.1235
  380.0000      0.1220
  381.0000      0.1219
  382.0000      0.1203
  383.0000      0.1193
  384.0000      0.1183
  385.0000      0.1189
  386.0000      0.1183
  387.0000      0.1169
  388.0000      0.1163
  389.0000      0.1164
  390.0000      0.1165
  391.0000      0.1146
  392.0000      0.1136
  393.0000      0.1132
  394.0000      0.1130
  395.0000      0.1118
  396.0000      0.1118
  397.0000      0.1111
  398.0000      0.1103
  399.0000      0.1094
  400.0000      0.1092
  401.0000      0.1086
  402.0000      0.1079
  403.0000      0.1076
  404.0000      0.1067
  405.0000      0.1064
  406.0000      0.1056
  407.0000      0.1056
  408.0000      0.1052
  409.0000      0.1045
  410.0000      0.1038
  411.0000      0.1039
  412.0000      0.1032
  413.0000      0.1020
  414.0000      0.1020
  415.0000      0.1021
  416.0000      0.1023
  417.0000      0.1021
  418.0000      0.1017
  419.0000      0.1012
  420.0000      0.1009
  421.0000      0.1005
  422.0000      0.1001
  423.0000      0.0998
  424.0000      0.0993
  425.0000      0.0988
  426.0000      0.0985
  427.0000      0.0981
  428.0000      0.0976
  429.0000      0.0970
  430.0000      0.0967
  431.0000      0.0963
  432.0000      0.0958
  433.0000      0.0955
  434.0000      0.0951
  435.0000      0.0946
  436.0000      0.0942
  437.0000      0.0937
  438.0000      0.0933
  439.0000      0.0928
  440.0000      0.0925
  441.0000      0.0920
  442.0000      0.0916
  443.0000      0.0912
  444.0000      0.0908
  445.0000      0.0905
  446.0000      0.0900
  447.0000      0.0897
  448.0000      0.0895
  449.0000      0.0893
  450.0000      0.0891
  451.0000      0.0888
  452.0000      0.0887
  453.0000      0.0885
  454.0000      0.0883
  455.0000      0.0880
  456.0000      0.0877
  457.0000      0.0874
  458.0000      0.0871
  459.0000      0.0869
  460.0000      0.0867
  461.0000      0.0865
  462.0000      0.0864
  463.0000      0.0863
  464.0000      0.0862
  465.0000      0.0860
  466.0000      0.0859
  467.0000      0.0859
  468.0000      0.0857
  469.0000      0.0855
  470.0000      0.0854
  471.0000      0.0851
  472.0000      0.0849
  473.0000      0.0847
  474.0000      0.0844
  475.0000      0.0842
  476.0000      0.0838
  477.0000      0.0836
  478.0000      0.0832
  479.0000      0.0830
  480.0000      0.0827
  481.0000      0.0825
  482.0000      0.0822
  483.0000      0.0820
  484.0000      0.0817
  485.0000      0.0814
  486.0000      0.0811
  487.0000      0.0809
  488.0000      0.0805
  489.0000      0.0803
  490.0000      0.0799
  491.0000      0.0796
  492.0000      0.0792
  493.0000      0.0788
  494.0000      0.0785
  495.0000      0.0781
  496.0000      0.0776
  497.0000      0.0771
  498.0000      0.0768
  499.0000      0.0766
  500.0000      0.0762
  501.0000      0.0759
  502.0000      0.0756
  503.0000      0.0754
  504.0000      0.0751
  505.0000      0.0749
  506.0000      0.0747
  507.0000      0.0745
  508.0000      0.0743
  509.0000      0.0741
  510.0000      0.0739
  511.0000      0.0736
  512.0000      0.0733
  513.0000      0.0730
  514.0000      0.0728
  515.0000      0.0726
  516.0000      0.0724
  517.0000      0.0722
  518.0000      0.0720
  519.0000      0.0718
  520.0000      0.0715
  521.0000      0.0713
  522.0000      0.0711
  523.0000      0.0708
  524.0000      0.0706
  525.0000      0.0702
  526.0000      0.0700
  527.0000      0.0697
  528.0000      0.0694
  529.0000      0.0691
  530.0000      0.0689
  531.0000      0.0686
  532.0000      0.0683
  533.0000      0.0681
  534.0000      0.0679
  535.0000      0.0677
  536.0000      0.0675
  537.0000      0.0673
  538.0000      0.0671
  539.0000      0.0669
  540.0000      0.0668
  541.0000      0.0668
  542.0000      0.0667
  543.0000      0.0667
  544.0000      0.0666
  545.0000      0.0664
  546.0000      0.0663
  547.0000      0.0661
  548.0000      0.0660
  549.0000      0.0659
  550.0000      0.0657
  551.0000      0.0656
  552.0000      0.0654
  553.0000      0.0653
  554.0000      0.0651
  555.0000      0.0651
  556.0000      0.0650
  557.0000      0.0649
  558.0000      0.0648
  559.0000      0.0645
  560.0000      0.0644
  561.0000      0.0642
  562.0000      0.0641
  563.0000      0.0639
  564.0000      0.0637
  565.0000      0.0635
  566.0000      0.0633
  567.0000      0.0632
  568.0000      0.0630
  569.0000      0.0629
  570.0000      0.0627
  571.0000      0.0625
  572.0000      0.0623
  573.0000      0.0622
  574.0000      0.0621
  575.0000      0.0620
  576.0000      0.0618
  577.0000      0.0617
  578.0000      0.0615
  579.0000      0.0613
  580.0000      0.0612
  581.0000      0.0610
  582.0000      0.0610
  583.0000      0.0608
  584.0000      0.0607
  585.0000      0.0606
  586.0000      0.0606
  587.0000      0.0605
  588.0000      0.0605
  589.0000      0.0605
  590.0000      0.0605
  591.0000      0.0604
  592.0000      0.0604
  593.0000      0.0603
  594.0000      0.0603
  595.0000      0.0601
  596.0000      0.0599
  597.0000      0.0598
  598.0000      0.0596
  599.0000      0.0595
  600.0000      0.0593
  601.0000      0.0592
  602.0000      0.0591
  603.0000      0.0589
  604.0000      0.0588
  605.0000      0.0587
  606.0000      0.0586
  607.0000      0.0585
  608.0000      0.0584
  609.0000      0.0583
  610.0000      0.0582
  611.0000      0.0581
  612.0000      0.0580
  613.0000      0.0579
  614.0000      0.0577
  615.0000      0.0576
  616.0000      0.0575
  617.0000      0.0575
  618.0000      0.0574
  619.0000      0.0573
  620.0000      0.0572
  621.0000      0.0572
  622.0000      0.0571
  623.0000      0.0570
  624.0000      0.0570
  625.0000      0.0569
  626.0000      0.0568
  627.0000      0.0567
  628.0000      0.0566
  629.0000      0.0565
  630.0000      0.0564
  631.0000      0.0563
  632.0000      0.0562
  633.0000      0.0562
  634.0000      0.0561
  635.0000      0.0560
  636.0000      0.0559
  637.0000      0.0558
  638.0000      0.0556
  639.0000      0.0556
  640.0000      0.0554
  641.0000      0.0553
  642.0000      0.0552
  643.0000      0.0550
  644.0000      0.0549
  645.0000      0.0548
  646.0000      0.0546
  647.0000      0.0545
  648.0000      0.0544
  649.0000      0.0543
  650.0000      0.0542
  651.0000      0.0541
  652.0000      0.0540
  653.0000      0.0538
  654.0000      0.0538
  655.0000      0.0536
  656.0000      0.0535
  657.0000      0.0535
  658.0000      0.0535
  659.0000      0.0533
  660.0000      0.0532
  661.0000      0.0532
  662.0000      0.0531
  663.0000      0.0530
  664.0000      0.0530
  665.0000      0.0529
  666.0000      0.0528
  667.0000      0.0528
  668.0000      0.0527
  669.0000      0.0526
  670.0000      0.0526
  671.0000      0.0525
  672.0000      0.0525
  673.0000      0.0524
  674.0000      0.0525
  675.0000      0.0525
  676.0000      0.0524
  677.0000      0.0524
  678.0000      0.0524
  679.0000      0.0524
  680.0000      0.0524
  681.0000      0.0525
  682.0000      0.0524
  683.0000      0.0524
  684.0000      0.0525
  685.0000      0.0524
  686.0000      0.0524
  687.0000      0.0524
  688.0000      0.0523
  689.0000      0.0522
  690.0000      0.0522
  691.0000      0.0521
  692.0000      0.0521
  693.0000      0.0521
  694.0000      0.0521
  695.0000      0.0520
  696.0000      0.0519
  697.0000      0.0518
  698.0000      0.0517
  699.0000      0.0515
  700.0000      0.0514
  701.0000      0.0512
  702.0000      0.0510
  703.0000      0.0510
  704.0000      0.0509
  705.0000      0.0508
  706.0000      0.0507
  707.0000      0.0506
  708.0000      0.0505
  709.0000      0.0505
  710.0000      0.0504
  711.0000      0.0503
  712.0000      0.0503
  713.0000      0.0503
  714.0000      0.0502
  715.0000      0.0501
  716.0000      0.0500
  717.0000      0.0499
  718.0000      0.0498
  719.0000      0.0497
  720.0000      0.0496
  721.0000      0.0495
  722.0000      0.0493
  723.0000      0.0492
  724.0000      0.0491
  725.0000      0.0490
  726.0000      0.0489
  727.0000      0.0488
  728.0000      0.0487
  729.0000      0.0487
  730.0000      0.0487
  731.0000      0.0486
  732.0000      0.0484
  733.0000      0.0483
  734.0000      0.0483
  735.0000      0.0482
  736.0000      0.0474
  737.0000      0.0473
  738.0000      0.0472
  739.0000      0.0471
  740.0000      0.0470
  741.0000      0.0470
  742.0000      0.0469
  743.0000      0.0469
  744.0000      0.0468
  745.0000      0.0467
  746.0000      0.0467
  747.0000      0.0468
  748.0000      0.0467
  749.0000      0.0467
  750.0000      0.0467
  751.0000      0.0466
  752.0000      0.0466
  753.0000      0.0466
  754.0000      0.0466
  755.0000      0.0466
  756.0000      0.0466
  757.0000      0.0467
  758.0000      0.0466
  759.0000      0.0466
  760.0000      0.0465
  761.0000      0.0465
  762.0000      0.0464
  763.0000      0.0463
  764.0000      0.0461
  765.0000      0.0461
  766.0000      0.0459
  767.0000      0.0458
  768.0000      0.0457
  769.0000      0.0455
  770.0000      0.0454
  771.0000      0.0452
  772.0000      0.0451
  773.0000      0.0449
  774.0000      0.0448
  775.0000      0.0446
  776.0000      0.0445
  777.0000      0.0444
  778.0000      0.0443
  779.0000      0.0443
  780.0000      0.0442
  781.0000      0.0441
  782.0000      0.0441
  783.0000      0.0440
  784.0000      0.0440
  785.0000      0.0439
  786.0000      0.0440
  787.0000      0.0440
  788.0000      0.0439
  789.0000      0.0439
  790.0000      0.0439
  791.0000      0.0438
  792.0000      0.0438
  793.0000      0.0438
  794.0000      0.0438
  795.0000      0.0436
  796.0000      0.0436
  797.0000      0.0435
  798.0000      0.0435
  799.0000      0.0434
  800.0000      0.0432
