Start Wavelength:    200.0000
End Wavelength:    800.0000
Read Mode:  ABS
Read Average:      0.1000
Nanometer Interval:      1.0000
Time:      0.0000

  200.0000      1.0665
  201.0000      1.0187
  202.0000      0.9980
  203.0000      0.9715
  204.0000      0.9497
  205.0000      0.9310
  206.0000      0.9137
  207.0000      0.8916
  208.0000      0.8719
  209.0000      0.8485
  210.0000      0.8272
  211.0000      0.8046
  212.0000      0.7828
  213.0000      0.7593
  214.0000      0.7355
  215.0000      0.7138
  216.0000      0.6906
  217.0000      0.6656
  218.0000      0.6438
  219.0000      0.6223
  220.0000      0.6024
  221.0000      0.5813
  222.0000      0.5635
  223.0000      0.5472
  224.0000      0.5316
  225.0000      0.5145
  226.0000      0.5006
  227.0000      0.4884
  228.0000      0.4777
  229.0000      0.4660
  230.0000      0.4573
  231.0000      0.4482
  232.0000      0.4398
  233.0000      0.4315
  234.0000      0.4247
  235.0000      0.4182
  236.0000      0.4125
  237.0000      0.4067
  238.0000      0.4014
  239.0000      0.3969
  240.0000      0.3924
  241.0000      0.3880
  242.0000      0.3849
  243.0000      0.3816
  244.0000      0.3789
  245.0000      0.3759
  246.0000      0.3731
  247.0000      0.3706
  248.0000      0.3675
  249.0000      0.3650
  250.0000      0.3632
  251.0000      0.3616
  252.0000      0.3594
  253.0000      0.3574
  254.0000      0.3552
  255.0000      0.3535
  256.0000      0.3505
  257.0000      0.3491
  258.0000      0.3474
  259.0000      0.3454
  260.0000      0.3434
  261.0000      0.3413
  262.0000      0.3395
  263.0000      0.3367
  264.0000      0.3345
  265.0000      0.3323
  266.0000      0.3300
  267.0000      0.3271
  268.0000      0.3244
  269.0000      0.3224
  270.0000      0.3192
  271.0000      0.3159
  272.0000      0.3139
  273.0000      0.3109
  274.0000      0.3081
  275.0000      0.3057
  276.0000      0.3028
  277.0000      0.2994
  278.0000      0.2960
  279.0000      0.2936
  280.0000      0.2905
  281.0000      0.2876
  282.0000      0.2851
  283.0000      0.2816
  284.0000      0.2781
  285.0000      0.2751
  286.0000      0.2713
  287.0000      0.2689
  288.0000      0.2655
  289.0000      0.2624
  290.0000      0.2601
  291.0000      0.2562
  292.0000      0.2532
  293.0000      0.2504
  294.0000      0.2481
  295.0000      0.2450
  296.0000      0.2425
  297.0000      0.2394
  298.0000      0.2370
  299.0000      0.2338
  300.0000      0.2319
  301.0000      0.2288
  302.0000      0.2261
  303.0000      0.2245
  304.0000      0.2219
  305.0000      0.2193
  306.0000      0.2173
  307.0000      0.2145
  308.0000      0.2131
  309.0000      0.2110
  310.0000      0.2092
  311.0000      0.2076
  312.0000      0.2062
  313.0000      0.2036
  314.0000      0.2007
  315.0000      0.1993
  316.0000      0.1978
  317.0000      0.1961
  318.0000      0.1941
  319.0000      0.1922
  320.0000      0.1905
  321.0000      0.1901
  322.0000      0.1883
  323.0000      0.1860
  324.0000      0.1842
  325.0000      0.1830
  326.0000      0.1816
  327.0000      0.1800
  328.0000      0.1785
  329.0000      0.1761
  330.0000      0.1757
  331.0000      0.1740
  332.0000      0.1723
  333.0000      0.1702
  334.0000      0.1694
  335.0000      0.1683
  336.0000      0.1661
  337.0000      0.1647
  338.0000      0.1631
  339.0000      0.1618
  340.0000      0.1612
  341.0000      0.1598
  342.0000      0.1585
  343.0000      0.1571
  344.0000      0.1560
  345.0000      0.1551
  346.0000      0.1537
  347.0000      0.1523
  348.0000      0.1518
  349.0000      0.1506
  350.0000      0.1496
  351.0000      0.1483
  352.0000      0.1471
  353.0000      0.1463
  354.0000      0.1456
  355.0000      0.1444
  356.0000      0.1438
  357.0000      0.1424
  358.0000      0.1409
  359.0000      0.1414
  360.0000      0.1408
  361.0000      0.1387
  362.0000      0.1354
  363.0000      0.1371
  364.0000      0.1385
  365.0000      0.1370
  366.0000      0.1340
  367.0000      0.1340
  368.0000      0.1325
  369.0000      0.1322
  370.0000      0.1314
  371.0000      0.1311
  372.0000      0.1306
  373.0000      0.1296
  374.0000      0.1275
  375.0000      0.1272
  376.0000      0.1272
  377.0000      0.1271
  378.0000      0.1266
  379.0000      0.1250
  380.0000      0.1228
  381.0000      0.1228
  382.0000      0.1218
  383.0000      0.1216
  384.0000      0.1207
  385.0000      0.1211
  386.0000      0.1192
  387.0000      0.1173
  388.0000      0.1171
  389.0000      0.1173
  390.0000      0.1168
  391.0000      0.1158
  392.0000      0.1155
  393.0000      0.1144
  394.0000      0.1139
  395.0000      0.1132
  396.0000      0.1127
  397.0000      0.1122
  398.0000      0.1115
  399.0000      0.1105
  400.0000      0.1096
  401.0000      0.1089
  402.0000      0.1086
  403.0000      0.1084
  404.0000      0.1070
  405.0000      0.1074
  406.0000      0.1063
  407.0000      0.1061
  408.0000      0.1053
  409.0000      0.1048
  410.0000      0.1043
  411.0000      0.1044
  412.0000      0.1036
  413.0000      0.1028
  414.0000      0.1023
  415.0000      0.1029
  416.0000      0.1017
  417.0000      0.1010
  418.0000      0.1006
  419.0000      0.1001
  420.0000      0.0996
  421.0000      0.0992
  422.0000      0.0986
  423.0000      0.0982
  424.0000      0.0975
  425.0000      0.0972
  426.0000      0.0969
  427.0000      0.0963
  428.0000      0.0958
  429.0000      0.0953
  430.0000      0.0949
  431.0000      0.0945
  432.0000      0.0940
  433.0000      0.0937
  434.0000      0.0934
  435.0000      0.0929
  436.0000      0.0926
  437.0000      0.0922
  438.0000      0.0919
  439.0000      0.0915
  440.0000      0.0911
  441.0000      0.0907
  442.0000      0.0903
  443.0000      0.0901
  444.0000      0.0897
  445.0000      0.0894
  446.0000      0.0891
  447.0000      0.0888
  448.0000      0.0884
  449.0000      0.0882
  450.0000      0.0879
  451.0000      0.0876
  452.0000      0.0873
  453.0000      0.0870
  454.0000      0.0868
  455.0000      0.0866
  456.0000      0.0862
  457.0000      0.0860
  458.0000      0.0858
  459.0000      0.0856
  460.0000      0.0852
  461.0000      0.0850
  462.0000      0.0850
  463.0000      0.0850
  464.0000      0.0849
  465.0000      0.0848
  466.0000      0.0848
  467.0000      0.0848
  468.0000      0.0846
  469.0000      0.0844
  470.0000      0.0841
  471.0000      0.0839
  472.0000      0.0835
  473.0000      0.0832
  474.0000      0.0828
  475.0000      0.0824
  476.0000      0.0820
  477.0000      0.0818
  478.0000      0.0813
  479.0000      0.0811
  480.0000      0.0808
  481.0000      0.0806
  482.0000      0.0802
  483.0000      0.0800
  484.0000      0.0796
  485.0000      0.0794
  486.0000      0.0792
  487.0000      0.0790
  488.0000      0.0787
  489.0000      0.0786
  490.0000      0.0783
  491.0000      0.0781
  492.0000      0.0778
  493.0000      0.0775
  494.0000      0.0773
  495.0000      0.0770
  496.0000      0.0767
  497.0000      0.0763
  498.0000      0.0761
  499.0000      0.0758
  500.0000      0.0754
  501.0000      0.0750
  502.0000      0.0747
  503.0000      0.0744
  504.0000      0.0740
  505.0000      0.0737
  506.0000      0.0734
  507.0000      0.0732
  508.0000      0.0731
  509.0000      0.0729
  510.0000      0.0727
  511.0000      0.0725
  512.0000      0.0723
  513.0000      0.0721
  514.0000      0.0719
  515.0000      0.0717
  516.0000      0.0715
  517.0000      0.0713
  518.0000      0.0710
  519.0000      0.0708
  520.0000      0.0705
  521.0000      0.0703
  522.0000      0.0700
  523.0000      0.0698
  524.0000      0.0696
  525.0000      0.0694
  526.0000      0.0692
  527.0000      0.0691
  528.0000      0.0690
  529.0000      0.0689
  530.0000      0.0688
  531.0000      0.0687
  532.0000      0.0686
  533.0000      0.0686
  534.0000      0.0685
  535.0000      0.0683
  536.0000      0.0682
  537.0000      0.0680
  538.0000      0.0678
  539.0000      0.0677
  540.0000      0.0675
  541.0000      0.0673
  542.0000      0.0673
  543.0000      0.0673
  544.0000      0.0671
  545.0000      0.0670
  546.0000      0.0669
  547.0000      0.0668
  548.0000      0.0668
  549.0000      0.0668
  550.0000      0.0667
  551.0000      0.0667
  552.0000      0.0666
  553.0000      0.0665
  554.0000      0.0665
  555.0000      0.0665
  556.0000      0.0664
  557.0000      0.0638
  558.0000      0.0636
  559.0000      0.0633
  560.0000      0.0633
  561.0000      0.0631
  562.0000      0.0631
  563.0000      0.0631
  564.0000      0.0631
  565.0000      0.0631
  566.0000      0.0630
  567.0000      0.0630
  568.0000      0.0629
  569.0000      0.0628
  570.0000      0.0626
  571.0000      0.0625
  572.0000      0.0623
  573.0000      0.0622
  574.0000      0.0621
  575.0000      0.0621
  576.0000      0.0621
  577.0000      0.0619
  578.0000      0.0619
  579.0000      0.0618
  580.0000      0.0616
  581.0000      0.0613
  582.0000      0.0612
  583.0000      0.0611
  584.0000      0.0612
  585.0000      0.0612
  586.0000      0.0612
  587.0000      0.0612
  588.0000      0.0611
  589.0000      0.0610
  590.0000      0.0608
  591.0000      0.0606
  592.0000      0.0605
  593.0000      0.0603
  594.0000      0.0602
  595.0000      0.0601
  596.0000      0.0599
  597.0000      0.0598
  598.0000      0.0596
  599.0000      0.0593
  600.0000      0.0590
  601.0000      0.0587
  602.0000      0.0584
  603.0000      0.0582
  604.0000      0.0581
  605.0000      0.0580
  606.0000      0.0580
  607.0000      0.0579
  608.0000      0.0577
  609.0000      0.0575
  610.0000      0.0574
  611.0000      0.0572
  612.0000      0.0570
  613.0000      0.0569
  614.0000      0.0568
  615.0000      0.0567
  616.0000      0.0566
  617.0000      0.0565
  618.0000      0.0564
  619.0000      0.0562
  620.0000      0.0562
  621.0000      0.0561
  622.0000      0.0560
  623.0000      0.0560
  624.0000      0.0559
  625.0000      0.0558
  626.0000      0.0558
  627.0000      0.0557
  628.0000      0.0557
  629.0000      0.0557
  630.0000      0.0555
  631.0000      0.0554
  632.0000      0.0552
  633.0000      0.0551
  634.0000      0.0551
  635.0000      0.0551
  636.0000      0.0550
  637.0000      0.0550
  638.0000      0.0549
  639.0000      0.0549
  640.0000      0.0548
  641.0000      0.0548
  642.0000      0.0547
  643.0000      0.0547
  644.0000      0.0546
  645.0000      0.0545
  646.0000      0.0544
  647.0000      0.0543
  648.0000      0.0542
  649.0000      0.0540
  650.0000      0.0539
  651.0000      0.0539
  652.0000      0.0538
  653.0000      0.0537
  654.0000      0.0537
  655.0000      0.0537
  656.0000      0.0537
  657.0000      0.0537
  658.0000      0.0537
  659.0000      0.0537
  660.0000      0.0537
  661.0000      0.0538
  662.0000      0.0538
  663.0000      0.0537
  664.0000      0.0537
  665.0000      0.0537
  666.0000      0.0537
  667.0000      0.0536
  668.0000      0.0535
  669.0000      0.0535
  670.0000      0.0534
  671.0000      0.0533
  672.0000      0.0532
  673.0000      0.0531
  674.0000      0.0531
  675.0000      0.0530
  676.0000      0.0529
  677.0000      0.0527
  678.0000      0.0526
  679.0000      0.0524
  680.0000      0.0522
  681.0000      0.0520
  682.0000      0.0517
  683.0000      0.0514
  684.0000      0.0512
  685.0000      0.0510
  686.0000      0.0508
  687.0000      0.0506
  688.0000      0.0504
  689.0000      0.0503
  690.0000      0.0501
  691.0000      0.0499
  692.0000      0.0498
  693.0000      0.0496
  694.0000      0.0494
  695.0000      0.0493
  696.0000      0.0492
  697.0000      0.0491
  698.0000      0.0489
  699.0000      0.0488
  700.0000      0.0487
  701.0000      0.0486
  702.0000      0.0485
  703.0000      0.0484
  704.0000      0.0484
  705.0000      0.0483
  706.0000      0.0483
  707.0000      0.0483
  708.0000      0.0483
  709.0000      0.0482
  710.0000      0.0482
  711.0000      0.0481
  712.0000      0.0481
  713.0000      0.0481
  714.0000      0.0481
  715.0000      0.0481
  716.0000      0.0481
  717.0000      0.0481
  718.0000      0.0481
  719.0000      0.0480
  720.0000      0.0479
  721.0000      0.0478
  722.0000      0.0478
  723.0000      0.0477
  724.0000      0.0477
  725.0000      0.0476
  726.0000      0.0475
  727.0000      0.0474
  728.0000      0.0472
  729.0000      0.0471
  730.0000      0.0469
  731.0000      0.0468
  732.0000      0.0466
  733.0000      0.0465
  734.0000      0.0464
  735.0000      0.0463
  736.0000      0.0457
  737.0000      0.0456
  738.0000      0.0454
  739.0000      0.0454
  740.0000      0.0452
  741.0000      0.0450
  742.0000      0.0450
  743.0000      0.0449
  744.0000      0.0448
  745.0000      0.0446
  746.0000      0.0446
  747.0000      0.0445
  748.0000      0.0445
  749.0000      0.0445
  750.0000      0.0444
  751.0000      0.0444
  752.0000      0.0445
  753.0000      0.0445
  754.0000      0.0444
  755.0000      0.0444
  756.0000      0.0443
  757.0000      0.0443
  758.0000      0.0443
  759.0000      0.0442
  760.0000      0.0442
  761.0000      0.0442
  762.0000      0.0443
  763.0000      0.0443
  764.0000      0.0444
  765.0000      0.0445
  766.0000      0.0446
  767.0000      0.0446
  768.0000      0.0447
  769.0000      0.0447
  770.0000      0.0447
  771.0000      0.0447
  772.0000      0.0447
  773.0000      0.0446
  774.0000      0.0445
  775.0000      0.0444
  776.0000      0.0443
  777.0000      0.0442
  778.0000      0.0441
  779.0000      0.0440
  780.0000      0.0440
  781.0000      0.0439
  782.0000      0.0438
  783.0000      0.0438
  784.0000      0.0438
  785.0000      0.0437
  786.0000      0.0438
  787.0000      0.0438
  788.0000      0.0437
  789.0000      0.0437
  790.0000      0.0437
  791.0000      0.0436
  792.0000      0.0437
  793.0000      0.0437
  794.0000      0.0437
  795.0000      0.0437
  796.0000      0.0437
  797.0000      0.0438
  798.0000      0.0438
  799.0000      0.0438
  800.0000      0.0438
