Start Wavelength:    200.0000
End Wavelength:    800.0000
Read Mode:  ABS
Read Average:      0.1000
Nanometer Interval:      1.0000
Time:      0.0000

  200.0000      1.1148
  201.0000      1.0755
  202.0000      1.0554
  203.0000      1.0426
  204.0000      1.0125
  205.0000      0.9860
  206.0000      0.9727
  207.0000      0.9450
  208.0000      0.9242
  209.0000      0.8977
  210.0000      0.8705
  211.0000      0.8433
  212.0000      0.8139
  213.0000      0.7842
  214.0000      0.7542
  215.0000      0.7256
  216.0000      0.6962
  217.0000      0.6631
  218.0000      0.6364
  219.0000      0.6084
  220.0000      0.5828
  221.0000      0.5555
  222.0000      0.5317
  223.0000      0.5106
  224.0000      0.4890
  225.0000      0.4695
  226.0000      0.4526
  227.0000      0.4374
  228.0000      0.4238
  229.0000      0.4093
  230.0000      0.3991
  231.0000      0.3880
  232.0000      0.3798
  233.0000      0.3708
  234.0000      0.3629
  235.0000      0.3570
  236.0000      0.3504
  237.0000      0.3453
  238.0000      0.3404
  239.0000      0.3363
  240.0000      0.3324
  241.0000      0.3282
  242.0000      0.3256
  243.0000      0.3228
  244.0000      0.3206
  245.0000      0.3178
  246.0000      0.3153
  247.0000      0.3136
  248.0000      0.3108
  249.0000      0.3092
  250.0000      0.3078
  251.0000      0.3058
  252.0000      0.3038
  253.0000      0.3017
  254.0000      0.3007
  255.0000      0.2983
  256.0000      0.2971
  257.0000      0.2955
  258.0000      0.2939
  259.0000      0.2926
  260.0000      0.2902
  261.0000      0.2889
  262.0000      0.2870
  263.0000      0.2851
  264.0000      0.2827
  265.0000      0.2809
  266.0000      0.2785
  267.0000      0.2755
  268.0000      0.2742
  269.0000      0.2720
  270.0000      0.2696
  271.0000      0.2671
  272.0000      0.2643
  273.0000      0.2619
  274.0000      0.2596
  275.0000      0.2578
  276.0000      0.2543
  277.0000      0.2519
  278.0000      0.2499
  279.0000      0.2466
  280.0000      0.2448
  281.0000      0.2419
  282.0000      0.2388
  283.0000      0.2363
  284.0000      0.2334
  285.0000      0.2317
  286.0000      0.2278
  287.0000      0.2256
  288.0000      0.2228
  289.0000      0.2200
  290.0000      0.2183
  291.0000      0.2144
  292.0000      0.2122
  293.0000      0.2097
  294.0000      0.2073
  295.0000      0.2044
  296.0000      0.2022
  297.0000      0.1997
  298.0000      0.1970
  299.0000      0.1951
  300.0000      0.1930
  301.0000      0.1905
  302.0000      0.1885
  303.0000      0.1867
  304.0000      0.1848
  305.0000      0.1824
  306.0000      0.1803
  307.0000      0.1785
  308.0000      0.1764
  309.0000      0.1753
  310.0000      0.1730
  311.0000      0.1721
  312.0000      0.1711
  313.0000      0.1682
  314.0000      0.1668
  315.0000      0.1651
  316.0000      0.1647
  317.0000      0.1631
  318.0000      0.1614
  319.0000      0.1594
  320.0000      0.1581
  321.0000      0.1575
  322.0000      0.1548
  323.0000      0.1536
  324.0000      0.1521
  325.0000      0.1509
  326.0000      0.1494
  327.0000      0.1474
  328.0000      0.1468
  329.0000      0.1451
  330.0000      0.1444
  331.0000      0.1435
  332.0000      0.1416
  333.0000      0.1406
  334.0000      0.1390
  335.0000      0.1387
  336.0000      0.1369
  337.0000      0.1360
  338.0000      0.1349
  339.0000      0.1332
  340.0000      0.1333
  341.0000      0.1318
  342.0000      0.1307
  343.0000      0.1299
  344.0000      0.1289
  345.0000      0.1284
  346.0000      0.1273
  347.0000      0.1261
  348.0000      0.1253
  349.0000      0.1245
  350.0000      0.1235
  351.0000      0.1225
  352.0000      0.1220
  353.0000      0.1210
  354.0000      0.1206
  355.0000      0.1195
  356.0000      0.1184
  357.0000      0.1193
  358.0000      0.1176
  359.0000      0.1198
  360.0000      0.1175
  361.0000      0.1167
  362.0000      0.1143
  363.0000      0.1138
  364.0000      0.1163
  365.0000      0.1141
  366.0000      0.1145
  367.0000      0.1123
  368.0000      0.1121
  369.0000      0.1103
  370.0000      0.1098
  371.0000      0.1104
  372.0000      0.1085
  373.0000      0.1088
  374.0000      0.1070
  375.0000      0.1061
  376.0000      0.1067
  377.0000      0.1056
  378.0000      0.1057
  379.0000      0.1031
  380.0000      0.1034
  381.0000      0.1032
  382.0000      0.1010
  383.0000      0.1011
  384.0000      0.0999
  385.0000      0.1008
  386.0000      0.0996
  387.0000      0.0980
  388.0000      0.0973
  389.0000      0.0970
  390.0000      0.0974
  391.0000      0.0960
  392.0000      0.0953
  393.0000      0.0947
  394.0000      0.0942
  395.0000      0.0941
  396.0000      0.0936
  397.0000      0.0928
  398.0000      0.0921
  399.0000      0.0914
  400.0000      0.0914
  401.0000      0.0902
  402.0000      0.0895
  403.0000      0.0896
  404.0000      0.0884
  405.0000      0.0883
  406.0000      0.0873
  407.0000      0.0877
  408.0000      0.0871
  409.0000      0.0862
  410.0000      0.0857
  411.0000      0.0851
  412.0000      0.0850
  413.0000      0.0842
  414.0000      0.0840
  415.0000      0.0842
  416.0000      0.0822
  417.0000      0.0819
  418.0000      0.0814
  419.0000      0.0809
  420.0000      0.0804
  421.0000      0.0799
  422.0000      0.0796
  423.0000      0.0790
  424.0000      0.0785
  425.0000      0.0781
  426.0000      0.0778
  427.0000      0.0773
  428.0000      0.0768
  429.0000      0.0764
  430.0000      0.0759
  431.0000      0.0755
  432.0000      0.0751
  433.0000      0.0747
  434.0000      0.0744
  435.0000      0.0740
  436.0000      0.0736
  437.0000      0.0732
  438.0000      0.0729
  439.0000      0.0724
  440.0000      0.0721
  441.0000      0.0717
  442.0000      0.0713
  443.0000      0.0710
  444.0000      0.0706
  445.0000      0.0702
  446.0000      0.0698
  447.0000      0.0694
  448.0000      0.0691
  449.0000      0.0687
  450.0000      0.0683
  451.0000      0.0680
  452.0000      0.0675
  453.0000      0.0672
  454.0000      0.0669
  455.0000      0.0665
  456.0000      0.0661
  457.0000      0.0657
  458.0000      0.0655
  459.0000      0.0652
  460.0000      0.0648
  461.0000      0.0646
  462.0000      0.0644
  463.0000      0.0643
  464.0000      0.0640
  465.0000      0.0638
  466.0000      0.0636
  467.0000      0.0634
  468.0000      0.0633
  469.0000      0.0631
  470.0000      0.0629
  471.0000      0.0627
  472.0000      0.0625
  473.0000      0.0623
  474.0000      0.0620
  475.0000      0.0619
  476.0000      0.0616
  477.0000      0.0613
  478.0000      0.0610
  479.0000      0.0608
  480.0000      0.0607
  481.0000      0.0605
  482.0000      0.0602
  483.0000      0.0601
  484.0000      0.0597
  485.0000      0.0595
  486.0000      0.0593
  487.0000      0.0591
  488.0000      0.0588
  489.0000      0.0586
  490.0000      0.0584
  491.0000      0.0582
  492.0000      0.0579
  493.0000      0.0577
  494.0000      0.0575
  495.0000      0.0573
  496.0000      0.0571
  497.0000      0.0568
  498.0000      0.0567
  499.0000      0.0565
  500.0000      0.0562
  501.0000      0.0560
  502.0000      0.0558
  503.0000      0.0556
  504.0000      0.0554
  505.0000      0.0552
  506.0000      0.0550
  507.0000      0.0548
  508.0000      0.0546
  509.0000      0.0543
  510.0000      0.0541
  511.0000      0.0539
  512.0000      0.0535
  513.0000      0.0533
  514.0000      0.0531
  515.0000      0.0529
  516.0000      0.0527
  517.0000      0.0524
  518.0000      0.0522
  519.0000      0.0520
  520.0000      0.0517
  521.0000      0.0515
  522.0000      0.0513
  523.0000      0.0512
  524.0000      0.0510
  525.0000      0.0508
  526.0000      0.0506
  527.0000      0.0504
  528.0000      0.0502
  529.0000      0.0500
  530.0000      0.0497
  531.0000      0.0495
  532.0000      0.0492
  533.0000      0.0491
  534.0000      0.0489
  535.0000      0.0487
  536.0000      0.0485
  537.0000      0.0483
  538.0000      0.0482
  539.0000      0.0480
  540.0000      0.0479
  541.0000      0.0478
  542.0000      0.0477
  543.0000      0.0475
  544.0000      0.0474
  545.0000      0.0473
  546.0000      0.0471
  547.0000      0.0470
  548.0000      0.0468
  549.0000      0.0467
  550.0000      0.0466
  551.0000      0.0465
  552.0000      0.0465
  553.0000      0.0464
  554.0000      0.0463
  555.0000      0.0462
  556.0000      0.0462
  557.0000      0.0463
  558.0000      0.0461
  559.0000      0.0460
  560.0000      0.0459
  561.0000      0.0458
  562.0000      0.0456
  563.0000      0.0455
  564.0000      0.0453
  565.0000      0.0451
  566.0000      0.0448
  567.0000      0.0446
  568.0000      0.0444
  569.0000      0.0442
  570.0000      0.0440
  571.0000      0.0439
  572.0000      0.0437
  573.0000      0.0436
  574.0000      0.0434
  575.0000      0.0432
  576.0000      0.0429
  577.0000      0.0427
  578.0000      0.0425
  579.0000      0.0424
  580.0000      0.0423
  581.0000      0.0422
  582.0000      0.0421
  583.0000      0.0420
  584.0000      0.0418
  585.0000      0.0417
  586.0000      0.0415
  587.0000      0.0415
  588.0000      0.0414
  589.0000      0.0413
  590.0000      0.0412
  591.0000      0.0410
  592.0000      0.0408
  593.0000      0.0407
  594.0000      0.0406
  595.0000      0.0404
  596.0000      0.0403
  597.0000      0.0402
  598.0000      0.0401
  599.0000      0.0400
  600.0000      0.0399
  601.0000      0.0398
  602.0000      0.0397
  603.0000      0.0395
  604.0000      0.0394
  605.0000      0.0393
  606.0000      0.0391
  607.0000      0.0391
  608.0000      0.0391
  609.0000      0.0391
  610.0000      0.0390
  611.0000      0.0389
  612.0000      0.0387
  613.0000      0.0386
  614.0000      0.0384
  615.0000      0.0383
  616.0000      0.0382
  617.0000      0.0381
  618.0000      0.0380
  619.0000      0.0380
  620.0000      0.0379
  621.0000      0.0378
  622.0000      0.0378
  623.0000      0.0377
  624.0000      0.0377
  625.0000      0.0377
  626.0000      0.0377
  627.0000      0.0377
  628.0000      0.0376
  629.0000      0.0375
  630.0000      0.0375
  631.0000      0.0374
  632.0000      0.0374
  633.0000      0.0373
  634.0000      0.0373
  635.0000      0.0373
  636.0000      0.0373
  637.0000      0.0373
  638.0000      0.0372
  639.0000      0.0371
  640.0000      0.0370
  641.0000      0.0369
  642.0000      0.0368
  643.0000      0.0367
  644.0000      0.0366
  645.0000      0.0365
  646.0000      0.0365
  647.0000      0.0364
  648.0000      0.0363
  649.0000      0.0362
  650.0000      0.0361
  651.0000      0.0360
  652.0000      0.0358
  653.0000      0.0357
  654.0000      0.0357
  655.0000      0.0356
  656.0000      0.0355
  657.0000      0.0355
  658.0000      0.0355
  659.0000      0.0354
  660.0000      0.0353
  661.0000      0.0353
  662.0000      0.0353
  663.0000      0.0353
  664.0000      0.0352
  665.0000      0.0352
  666.0000      0.0352
  667.0000      0.0352
  668.0000      0.0352
  669.0000      0.0352
  670.0000      0.0352
  671.0000      0.0352
  672.0000      0.0352
  673.0000      0.0352
  674.0000      0.0352
  675.0000      0.0352
  676.0000      0.0352
  677.0000      0.0352
  678.0000      0.0352
  679.0000      0.0352
  680.0000      0.0352
  681.0000      0.0351
  682.0000      0.0351
  683.0000      0.0351
  684.0000      0.0350
  685.0000      0.0350
  686.0000      0.0349
  687.0000      0.0349
  688.0000      0.0348
  689.0000      0.0348
  690.0000      0.0347
  691.0000      0.0347
  692.0000      0.0346
  693.0000      0.0345
  694.0000      0.0344
  695.0000      0.0343
  696.0000      0.0342
  697.0000      0.0340
  698.0000      0.0339
  699.0000      0.0337
  700.0000      0.0336
  701.0000      0.0335
  702.0000      0.0334
  703.0000      0.0333
  704.0000      0.0332
  705.0000      0.0332
  706.0000      0.0331
  707.0000      0.0331
  708.0000      0.0330
  709.0000      0.0329
  710.0000      0.0329
  711.0000      0.0328
  712.0000      0.0327
  713.0000      0.0327
  714.0000      0.0326
  715.0000      0.0325
  716.0000      0.0325
  717.0000      0.0324
  718.0000      0.0323
  719.0000      0.0322
  720.0000      0.0321
  721.0000      0.0319
  722.0000      0.0319
  723.0000      0.0318
  724.0000      0.0316
  725.0000      0.0315
  726.0000      0.0313
  727.0000      0.0311
  728.0000      0.0309
  729.0000      0.0307
  730.0000      0.0305
  731.0000      0.0304
  732.0000      0.0302
  733.0000      0.0301
  734.0000      0.0300
  735.0000      0.0299
  736.0000      0.0306
  737.0000      0.0304
  738.0000      0.0303
  739.0000      0.0303
  740.0000      0.0301
  741.0000      0.0301
  742.0000      0.0301
  743.0000      0.0300
  744.0000      0.0300
  745.0000      0.0299
  746.0000      0.0299
  747.0000      0.0299
  748.0000      0.0298
  749.0000      0.0299
  750.0000      0.0298
  751.0000      0.0297
  752.0000      0.0297
  753.0000      0.0296
  754.0000      0.0296
  755.0000      0.0295
  756.0000      0.0294
  757.0000      0.0293
  758.0000      0.0292
  759.0000      0.0292
  760.0000      0.0290
  761.0000      0.0289
  762.0000      0.0288
  763.0000      0.0287
  764.0000      0.0286
  765.0000      0.0285
  766.0000      0.0284
  767.0000      0.0283
  768.0000      0.0283
  769.0000      0.0282
  770.0000      0.0281
  771.0000      0.0281
  772.0000      0.0281
  773.0000      0.0279
  774.0000      0.0279
  775.0000      0.0278
  776.0000      0.0278
  777.0000      0.0278
  778.0000      0.0277
  779.0000      0.0277
  780.0000      0.0276
  781.0000      0.0276
  782.0000      0.0276
  783.0000      0.0275
  784.0000      0.0275
  785.0000      0.0274
  786.0000      0.0274
  787.0000      0.0274
  788.0000      0.0273
  789.0000      0.0273
  790.0000      0.0272
  791.0000      0.0271
  792.0000      0.0271
  793.0000      0.0270
  794.0000      0.0271
  795.0000      0.0270
  796.0000      0.0270
  797.0000      0.0269
  798.0000      0.0269
  799.0000      0.0268
  800.0000      0.0267
