Start Wavelength:    200.0000
End Wavelength:    800.0000
Read Mode:  ABS
Read Average:      0.1000
Nanometer Interval:      1.0000
Time:      0.0000

  200.0000      1.2403
  201.0000      1.1991
  202.0000      1.1799
  203.0000      1.1573
  204.0000      1.1338
  205.0000      1.1109
  206.0000      1.0888
  207.0000      1.0665
  208.0000      1.0418
  209.0000      1.0162
  210.0000      0.9860
  211.0000      0.9557
  212.0000      0.9281
  213.0000      0.8944
  214.0000      0.8630
  215.0000      0.8323
  216.0000      0.8018
  217.0000      0.7677
  218.0000      0.7372
  219.0000      0.7082
  220.0000      0.6799
  221.0000      0.6517
  222.0000      0.6268
  223.0000      0.6037
  224.0000      0.5818
  225.0000      0.5609
  226.0000      0.5426
  227.0000      0.5260
  228.0000      0.5116
  229.0000      0.4966
  230.0000      0.4850
  231.0000      0.4743
  232.0000      0.4646
  233.0000      0.4555
  234.0000      0.4473
  235.0000      0.4405
  236.0000      0.4343
  237.0000      0.4279
  238.0000      0.4232
  239.0000      0.4184
  240.0000      0.4140
  241.0000      0.4100
  242.0000      0.4064
  243.0000      0.4033
  244.0000      0.4006
  245.0000      0.3974
  246.0000      0.3955
  247.0000      0.3933
  248.0000      0.3907
  249.0000      0.3880
  250.0000      0.3863
  251.0000      0.3843
  252.0000      0.3816
  253.0000      0.3803
  254.0000      0.3779
  255.0000      0.3764
  256.0000      0.3738
  257.0000      0.3714
  258.0000      0.3697
  259.0000      0.3672
  260.0000      0.3647
  261.0000      0.3631
  262.0000      0.3609
  263.0000      0.3582
  264.0000      0.3556
  265.0000      0.3535
  266.0000      0.3503
  267.0000      0.3476
  268.0000      0.3447
  269.0000      0.3421
  270.0000      0.3398
  271.0000      0.3367
  272.0000      0.3334
  273.0000      0.3311
  274.0000      0.3280
  275.0000      0.3251
  276.0000      0.3218
  277.0000      0.3187
  278.0000      0.3156
  279.0000      0.3127
  280.0000      0.3096
  281.0000      0.3067
  282.0000      0.3028
  283.0000      0.3001
  284.0000      0.2968
  285.0000      0.2938
  286.0000      0.2905
  287.0000      0.2873
  288.0000      0.2840
  289.0000      0.2811
  290.0000      0.2780
  291.0000      0.2744
  292.0000      0.2718
  293.0000      0.2688
  294.0000      0.2663
  295.0000      0.2629
  296.0000      0.2605
  297.0000      0.2569
  298.0000      0.2545
  299.0000      0.2517
  300.0000      0.2496
  301.0000      0.2457
  302.0000      0.2432
  303.0000      0.2412
  304.0000      0.2385
  305.0000      0.2358
  306.0000      0.2333
  307.0000      0.2313
  308.0000      0.2291
  309.0000      0.2264
  310.0000      0.2247
  311.0000      0.2225
  312.0000      0.2211
  313.0000      0.2182
  314.0000      0.2165
  315.0000      0.2145
  316.0000      0.2125
  317.0000      0.2114
  318.0000      0.2090
  319.0000      0.2067
  320.0000      0.2051
  321.0000      0.2052
  322.0000      0.2028
  323.0000      0.2004
  324.0000      0.1987
  325.0000      0.1977
  326.0000      0.1959
  327.0000      0.1938
  328.0000      0.1923
  329.0000      0.1906
  330.0000      0.1893
  331.0000      0.1878
  332.0000      0.1862
  333.0000      0.1842
  334.0000      0.1832
  335.0000      0.1816
  336.0000      0.1802
  337.0000      0.1787
  338.0000      0.1776
  339.0000      0.1762
  340.0000      0.1751
  341.0000      0.1740
  342.0000      0.1730
  343.0000      0.1712
  344.0000      0.1706
  345.0000      0.1694
  346.0000      0.1684
  347.0000      0.1667
  348.0000      0.1660
  349.0000      0.1652
  350.0000      0.1641
  351.0000      0.1629
  352.0000      0.1620
  353.0000      0.1610
  354.0000      0.1601
  355.0000      0.1590
  356.0000      0.1583
  357.0000      0.1555
  358.0000      0.1542
  359.0000      0.1544
  360.0000      0.1548
  361.0000      0.1537
  362.0000      0.1498
  363.0000      0.1504
  364.0000      0.1523
  365.0000      0.1496
  366.0000      0.1468
  367.0000      0.1474
  368.0000      0.1467
  369.0000      0.1435
  370.0000      0.1432
  371.0000      0.1431
  372.0000      0.1416
  373.0000      0.1413
  374.0000      0.1391
  375.0000      0.1388
  376.0000      0.1384
  377.0000      0.1389
  378.0000      0.1367
  379.0000      0.1354
  380.0000      0.1352
  381.0000      0.1358
  382.0000      0.1337
  383.0000      0.1335
  384.0000      0.1324
  385.0000      0.1325
  386.0000      0.1309
  387.0000      0.1294
  388.0000      0.1291
  389.0000      0.1286
  390.0000      0.1289
  391.0000      0.1275
  392.0000      0.1262
  393.0000      0.1251
  394.0000      0.1255
  395.0000      0.1243
  396.0000      0.1238
  397.0000      0.1223
  398.0000      0.1217
  399.0000      0.1207
  400.0000      0.1199
  401.0000      0.1190
  402.0000      0.1186
  403.0000      0.1184
  404.0000      0.1172
  405.0000      0.1171
  406.0000      0.1160
  407.0000      0.1159
  408.0000      0.1154
  409.0000      0.1143
  410.0000      0.1136
  411.0000      0.1135
  412.0000      0.1129
  413.0000      0.1118
  414.0000      0.1117
  415.0000      0.1119
  416.0000      0.1112
  417.0000      0.1108
  418.0000      0.1102
  419.0000      0.1094
  420.0000      0.1090
  421.0000      0.1083
  422.0000      0.1079
  423.0000      0.1073
  424.0000      0.1067
  425.0000      0.1062
  426.0000      0.1058
  427.0000      0.1053
  428.0000      0.1047
  429.0000      0.1042
  430.0000      0.1037
  431.0000      0.1032
  432.0000      0.1026
  433.0000      0.1022
  434.0000      0.1018
  435.0000      0.1012
  436.0000      0.1007
  437.0000      0.1002
  438.0000      0.0997
  439.0000      0.0992
  440.0000      0.0987
  441.0000      0.0981
  442.0000      0.0977
  443.0000      0.0971
  444.0000      0.0967
  445.0000      0.0963
  446.0000      0.0959
  447.0000      0.0955
  448.0000      0.0950
  449.0000      0.0946
  450.0000      0.0942
  451.0000      0.0937
  452.0000      0.0932
  453.0000      0.0928
  454.0000      0.0924
  455.0000      0.0920
  456.0000      0.0915
  457.0000      0.0911
  458.0000      0.0908
  459.0000      0.0905
  460.0000      0.0901
  461.0000      0.0898
  462.0000      0.0896
  463.0000      0.0893
  464.0000      0.0891
  465.0000      0.0888
  466.0000      0.0886
  467.0000      0.0884
  468.0000      0.0880
  469.0000      0.0877
  470.0000      0.0874
  471.0000      0.0871
  472.0000      0.0867
  473.0000      0.0864
  474.0000      0.0860
  475.0000      0.0856
  476.0000      0.0852
  477.0000      0.0849
  478.0000      0.0844
  479.0000      0.0841
  480.0000      0.0838
  481.0000      0.0836
  482.0000      0.0832
  483.0000      0.0830
  484.0000      0.0826
  485.0000      0.0822
  486.0000      0.0819
  487.0000      0.0816
  488.0000      0.0813
  489.0000      0.0810
  490.0000      0.0807
  491.0000      0.0805
  492.0000      0.0801
  493.0000      0.0799
  494.0000      0.0796
  495.0000      0.0793
  496.0000      0.0790
  497.0000      0.0787
  498.0000      0.0785
  499.0000      0.0784
  500.0000      0.0782
  501.0000      0.0779
  502.0000      0.0777
  503.0000      0.0775
  504.0000      0.0773
  505.0000      0.0771
  506.0000      0.0769
  507.0000      0.0768
  508.0000      0.0766
  509.0000      0.0765
  510.0000      0.0763
  511.0000      0.0762
  512.0000      0.0760
  513.0000      0.0758
  514.0000      0.0757
  515.0000      0.0755
  516.0000      0.0753
  517.0000      0.0751
  518.0000      0.0748
  519.0000      0.0746
  520.0000      0.0743
  521.0000      0.0741
  522.0000      0.0738
  523.0000      0.0735
  524.0000      0.0732
  525.0000      0.0729
  526.0000      0.0727
  527.0000      0.0724
  528.0000      0.0721
  529.0000      0.0719
  530.0000      0.0717
  531.0000      0.0714
  532.0000      0.0712
  533.0000      0.0709
  534.0000      0.0707
  535.0000      0.0704
  536.0000      0.0701
  537.0000      0.0698
  538.0000      0.0695
  539.0000      0.0693
  540.0000      0.0691
  541.0000      0.0690
  542.0000      0.0688
  543.0000      0.0685
  544.0000      0.0681
  545.0000      0.0678
  546.0000      0.0676
  547.0000      0.0673
  548.0000      0.0671
  549.0000      0.0670
  550.0000      0.0668
  551.0000      0.0666
  552.0000      0.0663
  553.0000      0.0661
  554.0000      0.0659
  555.0000      0.0657
  556.0000      0.0656
  557.0000      0.0655
  558.0000      0.0652
  559.0000      0.0649
  560.0000      0.0647
  561.0000      0.0644
  562.0000      0.0642
  563.0000      0.0640
  564.0000      0.0639
  565.0000      0.0637
  566.0000      0.0635
  567.0000      0.0633
  568.0000      0.0632
  569.0000      0.0630
  570.0000      0.0628
  571.0000      0.0627
  572.0000      0.0625
  573.0000      0.0623
  574.0000      0.0620
  575.0000      0.0618
  576.0000      0.0616
  577.0000      0.0613
  578.0000      0.0611
  579.0000      0.0610
  580.0000      0.0608
  581.0000      0.0607
  582.0000      0.0605
  583.0000      0.0604
  584.0000      0.0603
  585.0000      0.0601
  586.0000      0.0599
  587.0000      0.0597
  588.0000      0.0595
  589.0000      0.0594
  590.0000      0.0593
  591.0000      0.0591
  592.0000      0.0590
  593.0000      0.0589
  594.0000      0.0589
  595.0000      0.0589
  596.0000      0.0587
  597.0000      0.0586
  598.0000      0.0585
  599.0000      0.0584
  600.0000      0.0582
  601.0000      0.0581
  602.0000      0.0578
  603.0000      0.0576
  604.0000      0.0574
  605.0000      0.0572
  606.0000      0.0571
  607.0000      0.0569
  608.0000      0.0568
  609.0000      0.0567
  610.0000      0.0566
  611.0000      0.0566
  612.0000      0.0565
  613.0000      0.0565
  614.0000      0.0564
  615.0000      0.0563
  616.0000      0.0561
  617.0000      0.0559
  618.0000      0.0558
  619.0000      0.0556
  620.0000      0.0555
  621.0000      0.0553
  622.0000      0.0552
  623.0000      0.0550
  624.0000      0.0549
  625.0000      0.0548
  626.0000      0.0546
  627.0000      0.0545
  628.0000      0.0544
  629.0000      0.0543
  630.0000      0.0541
  631.0000      0.0540
  632.0000      0.0539
  633.0000      0.0537
  634.0000      0.0535
  635.0000      0.0533
  636.0000      0.0531
  637.0000      0.0530
  638.0000      0.0529
  639.0000      0.0528
  640.0000      0.0527
  641.0000      0.0526
  642.0000      0.0525
  643.0000      0.0524
  644.0000      0.0524
  645.0000      0.0524
  646.0000      0.0523
  647.0000      0.0522
  648.0000      0.0521
  649.0000      0.0520
  650.0000      0.0518
  651.0000      0.0517
  652.0000      0.0515
  653.0000      0.0513
  654.0000      0.0511
  655.0000      0.0509
  656.0000      0.0508
  657.0000      0.0506
  658.0000      0.0506
  659.0000      0.0504
  660.0000      0.0502
  661.0000      0.0501
  662.0000      0.0500
  663.0000      0.0499
  664.0000      0.0498
  665.0000      0.0497
  666.0000      0.0496
  667.0000      0.0495
  668.0000      0.0494
  669.0000      0.0493
  670.0000      0.0493
  671.0000      0.0492
  672.0000      0.0492
  673.0000      0.0491
  674.0000      0.0491
  675.0000      0.0491
  676.0000      0.0491
  677.0000      0.0490
  678.0000      0.0490
  679.0000      0.0489
  680.0000      0.0488
  681.0000      0.0487
  682.0000      0.0486
  683.0000      0.0485
  684.0000      0.0484
  685.0000      0.0484
  686.0000      0.0483
  687.0000      0.0482
  688.0000      0.0482
  689.0000      0.0480
  690.0000      0.0480
  691.0000      0.0478
  692.0000      0.0477
  693.0000      0.0475
  694.0000      0.0474
  695.0000      0.0473
  696.0000      0.0472
  697.0000      0.0471
  698.0000      0.0470
  699.0000      0.0468
  700.0000      0.0466
  701.0000      0.0464
  702.0000      0.0463
  703.0000      0.0461
  704.0000      0.0459
  705.0000      0.0458
  706.0000      0.0457
  707.0000      0.0456
  708.0000      0.0455
  709.0000      0.0453
  710.0000      0.0452
  711.0000      0.0451
  712.0000      0.0450
  713.0000      0.0449
  714.0000      0.0448
  715.0000      0.0447
  716.0000      0.0445
  717.0000      0.0444
  718.0000      0.0442
  719.0000      0.0440
  720.0000      0.0439
  721.0000      0.0438
  722.0000      0.0436
  723.0000      0.0435
  724.0000      0.0434
  725.0000      0.0432
  726.0000      0.0431
  727.0000      0.0429
  728.0000      0.0428
  729.0000      0.0426
  730.0000      0.0424
  731.0000      0.0422
  732.0000      0.0421
  733.0000      0.0420
  734.0000      0.0418
  735.0000      0.0417
  736.0000      0.0419
  737.0000      0.0418
  738.0000      0.0416
  739.0000      0.0415
  740.0000      0.0414
  741.0000      0.0413
  742.0000      0.0412
  743.0000      0.0412
  744.0000      0.0411
  745.0000      0.0410
  746.0000      0.0409
  747.0000      0.0409
  748.0000      0.0408
  749.0000      0.0407
  750.0000      0.0406
  751.0000      0.0406
  752.0000      0.0405
  753.0000      0.0405
  754.0000      0.0405
  755.0000      0.0404
  756.0000      0.0404
  757.0000      0.0403
  758.0000      0.0403
  759.0000      0.0403
  760.0000      0.0401
  761.0000      0.0401
  762.0000      0.0401
  763.0000      0.0400
  764.0000      0.0400
  765.0000      0.0400
  766.0000      0.0399
  767.0000      0.0399
  768.0000      0.0398
  769.0000      0.0398
  770.0000      0.0397
  771.0000      0.0397
  772.0000      0.0397
  773.0000      0.0396
  774.0000      0.0396
  775.0000      0.0395
  776.0000      0.0395
  777.0000      0.0395
  778.0000      0.0394
  779.0000      0.0394
  780.0000      0.0393
  781.0000      0.0393
  782.0000      0.0392
  783.0000      0.0392
  784.0000      0.0392
  785.0000      0.0391
  786.0000      0.0391
  787.0000      0.0390
  788.0000      0.0390
  789.0000      0.0390
  790.0000      0.0390
  791.0000      0.0388
  792.0000      0.0388
  793.0000      0.0387
  794.0000      0.0387
  795.0000      0.0387
  796.0000      0.0386
  797.0000      0.0385
  798.0000      0.0385
  799.0000      0.0384
  800.0000      0.0383
