Start Wavelength:    200.0000
End Wavelength:    800.0000
Read Mode:  ABS
Read Average:      0.1000
Nanometer Interval:      1.0000
Time:      0.0000

  200.0000      1.1690
  201.0000      1.1345
  202.0000      1.1215
  203.0000      1.1059
  204.0000      1.0794
  205.0000      1.0582
  206.0000      1.0334
  207.0000      1.0176
  208.0000      0.9894
  209.0000      0.9613
  210.0000      0.9349
  211.0000      0.9057
  212.0000      0.8775
  213.0000      0.8427
  214.0000      0.8143
  215.0000      0.7829
  216.0000      0.7518
  217.0000      0.7169
  218.0000      0.6878
  219.0000      0.6590
  220.0000      0.6305
  221.0000      0.6025
  222.0000      0.5772
  223.0000      0.5555
  224.0000      0.5336
  225.0000      0.5121
  226.0000      0.4934
  227.0000      0.4772
  228.0000      0.4628
  229.0000      0.4477
  230.0000      0.4371
  231.0000      0.4260
  232.0000      0.4168
  233.0000      0.4073
  234.0000      0.3991
  235.0000      0.3923
  236.0000      0.3862
  237.0000      0.3806
  238.0000      0.3750
  239.0000      0.3715
  240.0000      0.3671
  241.0000      0.3631
  242.0000      0.3601
  243.0000      0.3572
  244.0000      0.3553
  245.0000      0.3519
  246.0000      0.3495
  247.0000      0.3476
  248.0000      0.3449
  249.0000      0.3433
  250.0000      0.3414
  251.0000      0.3396
  252.0000      0.3372
  253.0000      0.3358
  254.0000      0.3340
  255.0000      0.3324
  256.0000      0.3305
  257.0000      0.3284
  258.0000      0.3269
  259.0000      0.3245
  260.0000      0.3233
  261.0000      0.3210
  262.0000      0.3193
  263.0000      0.3165
  264.0000      0.3142
  265.0000      0.3123
  266.0000      0.3098
  267.0000      0.3070
  268.0000      0.3041
  269.0000      0.3029
  270.0000      0.2999
  271.0000      0.2970
  272.0000      0.2945
  273.0000      0.2914
  274.0000      0.2895
  275.0000      0.2865
  276.0000      0.2837
  277.0000      0.2807
  278.0000      0.2774
  279.0000      0.2754
  280.0000      0.2725
  281.0000      0.2700
  282.0000      0.2663
  283.0000      0.2638
  284.0000      0.2609
  285.0000      0.2583
  286.0000      0.2543
  287.0000      0.2513
  288.0000      0.2483
  289.0000      0.2454
  290.0000      0.2437
  291.0000      0.2398
  292.0000      0.2374
  293.0000      0.2347
  294.0000      0.2325
  295.0000      0.2292
  296.0000      0.2260
  297.0000      0.2238
  298.0000      0.2211
  299.0000      0.2191
  300.0000      0.2170
  301.0000      0.2133
  302.0000      0.2110
  303.0000      0.2092
  304.0000      0.2071
  305.0000      0.2047
  306.0000      0.2030
  307.0000      0.2011
  308.0000      0.1989
  309.0000      0.1968
  310.0000      0.1947
  311.0000      0.1935
  312.0000      0.1914
  313.0000      0.1893
  314.0000      0.1873
  315.0000      0.1851
  316.0000      0.1840
  317.0000      0.1824
  318.0000      0.1802
  319.0000      0.1782
  320.0000      0.1772
  321.0000      0.1763
  322.0000      0.1742
  323.0000      0.1724
  324.0000      0.1709
  325.0000      0.1697
  326.0000      0.1684
  327.0000      0.1665
  328.0000      0.1653
  329.0000      0.1633
  330.0000      0.1625
  331.0000      0.1619
  332.0000      0.1598
  333.0000      0.1583
  334.0000      0.1571
  335.0000      0.1565
  336.0000      0.1545
  337.0000      0.1536
  338.0000      0.1519
  339.0000      0.1507
  340.0000      0.1503
  341.0000      0.1490
  342.0000      0.1480
  343.0000      0.1468
  344.0000      0.1458
  345.0000      0.1450
  346.0000      0.1436
  347.0000      0.1432
  348.0000      0.1419
  349.0000      0.1410
  350.0000      0.1399
  351.0000      0.1388
  352.0000      0.1378
  353.0000      0.1371
  354.0000      0.1365
  355.0000      0.1352
  356.0000      0.1344
  357.0000      0.1350
  358.0000      0.1330
  359.0000      0.1331
  360.0000      0.1327
  361.0000      0.1310
  362.0000      0.1288
  363.0000      0.1279
  364.0000      0.1296
  365.0000      0.1275
  366.0000      0.1261
  367.0000      0.1258
  368.0000      0.1245
  369.0000      0.1237
  370.0000      0.1231
  371.0000      0.1227
  372.0000      0.1212
  373.0000      0.1207
  374.0000      0.1197
  375.0000      0.1192
  376.0000      0.1185
  377.0000      0.1183
  378.0000      0.1181
  379.0000      0.1162
  380.0000      0.1146
  381.0000      0.1154
  382.0000      0.1137
  383.0000      0.1134
  384.0000      0.1116
  385.0000      0.1125
  386.0000      0.1112
  387.0000      0.1094
  388.0000      0.1090
  389.0000      0.1080
  390.0000      0.1087
  391.0000      0.1068
  392.0000      0.1064
  393.0000      0.1057
  394.0000      0.1055
  395.0000      0.1043
  396.0000      0.1038
  397.0000      0.1037
  398.0000      0.1021
  399.0000      0.1021
  400.0000      0.1011
  401.0000      0.1006
  402.0000      0.0999
  403.0000      0.0999
  404.0000      0.0988
  405.0000      0.0980
  406.0000      0.0981
  407.0000      0.0977
  408.0000      0.0969
  409.0000      0.0963
  410.0000      0.0954
  411.0000      0.0958
  412.0000      0.0947
  413.0000      0.0942
  414.0000      0.0937
  415.0000      0.0939
  416.0000      0.0917
  417.0000      0.0913
  418.0000      0.0907
  419.0000      0.0903
  420.0000      0.0897
  421.0000      0.0894
  422.0000      0.0888
  423.0000      0.0882
  424.0000      0.0877
  425.0000      0.0873
  426.0000      0.0870
  427.0000      0.0865
  428.0000      0.0859
  429.0000      0.0854
  430.0000      0.0850
  431.0000      0.0845
  432.0000      0.0840
  433.0000      0.0837
  434.0000      0.0833
  435.0000      0.0828
  436.0000      0.0825
  437.0000      0.0820
  438.0000      0.0816
  439.0000      0.0812
  440.0000      0.0808
  441.0000      0.0803
  442.0000      0.0800
  443.0000      0.0796
  444.0000      0.0793
  445.0000      0.0789
  446.0000      0.0786
  447.0000      0.0783
  448.0000      0.0779
  449.0000      0.0775
  450.0000      0.0771
  451.0000      0.0768
  452.0000      0.0765
  453.0000      0.0761
  454.0000      0.0759
  455.0000      0.0756
  456.0000      0.0751
  457.0000      0.0748
  458.0000      0.0744
  459.0000      0.0742
  460.0000      0.0739
  461.0000      0.0736
  462.0000      0.0734
  463.0000      0.0731
  464.0000      0.0729
  465.0000      0.0726
  466.0000      0.0725
  467.0000      0.0723
  468.0000      0.0720
  469.0000      0.0717
  470.0000      0.0715
  471.0000      0.0713
  472.0000      0.0710
  473.0000      0.0706
  474.0000      0.0703
  475.0000      0.0700
  476.0000      0.0697
  477.0000      0.0695
  478.0000      0.0691
  479.0000      0.0689
  480.0000      0.0685
  481.0000      0.0683
  482.0000      0.0679
  483.0000      0.0678
  484.0000      0.0674
  485.0000      0.0672
  486.0000      0.0669
  487.0000      0.0666
  488.0000      0.0662
  489.0000      0.0659
  490.0000      0.0656
  491.0000      0.0653
  492.0000      0.0649
  493.0000      0.0645
  494.0000      0.0642
  495.0000      0.0639
  496.0000      0.0636
  497.0000      0.0632
  498.0000      0.0630
  499.0000      0.0627
  500.0000      0.0624
  501.0000      0.0621
  502.0000      0.0618
  503.0000      0.0615
  504.0000      0.0612
  505.0000      0.0609
  506.0000      0.0606
  507.0000      0.0604
  508.0000      0.0601
  509.0000      0.0598
  510.0000      0.0595
  511.0000      0.0592
  512.0000      0.0590
  513.0000      0.0587
  514.0000      0.0585
  515.0000      0.0582
  516.0000      0.0580
  517.0000      0.0577
  518.0000      0.0575
  519.0000      0.0573
  520.0000      0.0570
  521.0000      0.0569
  522.0000      0.0567
  523.0000      0.0565
  524.0000      0.0562
  525.0000      0.0560
  526.0000      0.0558
  527.0000      0.0556
  528.0000      0.0554
  529.0000      0.0552
  530.0000      0.0550
  531.0000      0.0549
  532.0000      0.0547
  533.0000      0.0546
  534.0000      0.0544
  535.0000      0.0542
  536.0000      0.0540
  537.0000      0.0538
  538.0000      0.0536
  539.0000      0.0534
  540.0000      0.0532
  541.0000      0.0530
  542.0000      0.0528
  543.0000      0.0526
  544.0000      0.0524
  545.0000      0.0522
  546.0000      0.0520
  547.0000      0.0518
  548.0000      0.0516
  549.0000      0.0514
  550.0000      0.0512
  551.0000      0.0510
  552.0000      0.0508
  553.0000      0.0507
  554.0000      0.0505
  555.0000      0.0503
  556.0000      0.0502
  557.0000      0.0512
  558.0000      0.0510
  559.0000      0.0507
  560.0000      0.0505
  561.0000      0.0503
  562.0000      0.0501
  563.0000      0.0499
  564.0000      0.0497
  565.0000      0.0495
  566.0000      0.0493
  567.0000      0.0491
  568.0000      0.0490
  569.0000      0.0488
  570.0000      0.0486
  571.0000      0.0485
  572.0000      0.0483
  573.0000      0.0480
  574.0000      0.0479
  575.0000      0.0477
  576.0000      0.0475
  577.0000      0.0473
  578.0000      0.0472
  579.0000      0.0470
  580.0000      0.0468
  581.0000      0.0467
  582.0000      0.0465
  583.0000      0.0463
  584.0000      0.0462
  585.0000      0.0460
  586.0000      0.0459
  587.0000      0.0457
  588.0000      0.0456
  589.0000      0.0454
  590.0000      0.0452
  591.0000      0.0451
  592.0000      0.0449
  593.0000      0.0448
  594.0000      0.0447
  595.0000      0.0446
  596.0000      0.0444
  597.0000      0.0443
  598.0000      0.0442
  599.0000      0.0440
  600.0000      0.0439
  601.0000      0.0438
  602.0000      0.0435
  603.0000      0.0433
  604.0000      0.0431
  605.0000      0.0430
  606.0000      0.0428
  607.0000      0.0428
  608.0000      0.0427
  609.0000      0.0426
  610.0000      0.0425
  611.0000      0.0423
  612.0000      0.0422
  613.0000      0.0421
  614.0000      0.0419
  615.0000      0.0418
  616.0000      0.0417
  617.0000      0.0416
  618.0000      0.0415
  619.0000      0.0414
  620.0000      0.0413
  621.0000      0.0413
  622.0000      0.0412
  623.0000      0.0411
  624.0000      0.0411
  625.0000      0.0411
  626.0000      0.0410
  627.0000      0.0409
  628.0000      0.0408
  629.0000      0.0407
  630.0000      0.0407
  631.0000      0.0406
  632.0000      0.0405
  633.0000      0.0404
  634.0000      0.0403
  635.0000      0.0403
  636.0000      0.0402
  637.0000      0.0402
  638.0000      0.0401
  639.0000      0.0401
  640.0000      0.0400
  641.0000      0.0400
  642.0000      0.0399
  643.0000      0.0399
  644.0000      0.0398
  645.0000      0.0398
  646.0000      0.0397
  647.0000      0.0396
  648.0000      0.0395
  649.0000      0.0395
  650.0000      0.0394
  651.0000      0.0393
  652.0000      0.0393
  653.0000      0.0392
  654.0000      0.0391
  655.0000      0.0391
  656.0000      0.0390
  657.0000      0.0388
  658.0000      0.0387
  659.0000      0.0386
  660.0000      0.0386
  661.0000      0.0386
  662.0000      0.0385
  663.0000      0.0384
  664.0000      0.0383
  665.0000      0.0383
  666.0000      0.0382
  667.0000      0.0381
  668.0000      0.0381
  669.0000      0.0380
  670.0000      0.0379
  671.0000      0.0378
  672.0000      0.0377
  673.0000      0.0376
  674.0000      0.0375
  675.0000      0.0375
  676.0000      0.0374
  677.0000      0.0373
  678.0000      0.0372
  679.0000      0.0371
  680.0000      0.0371
  681.0000      0.0370
  682.0000      0.0369
  683.0000      0.0369
  684.0000      0.0368
  685.0000      0.0367
  686.0000      0.0366
  687.0000      0.0365
  688.0000      0.0365
  689.0000      0.0364
  690.0000      0.0363
  691.0000      0.0363
  692.0000      0.0362
  693.0000      0.0361
  694.0000      0.0360
  695.0000      0.0359
  696.0000      0.0359
  697.0000      0.0358
  698.0000      0.0357
  699.0000      0.0357
  700.0000      0.0356
  701.0000      0.0355
  702.0000      0.0354
  703.0000      0.0353
  704.0000      0.0352
  705.0000      0.0351
  706.0000      0.0351
  707.0000      0.0350
  708.0000      0.0349
  709.0000      0.0348
  710.0000      0.0347
  711.0000      0.0347
  712.0000      0.0346
  713.0000      0.0345
  714.0000      0.0344
  715.0000      0.0344
  716.0000      0.0343
  717.0000      0.0342
  718.0000      0.0341
  719.0000      0.0341
  720.0000      0.0340
  721.0000      0.0339
  722.0000      0.0339
  723.0000      0.0339
  724.0000      0.0338
  725.0000      0.0337
  726.0000      0.0336
  727.0000      0.0336
  728.0000      0.0335
  729.0000      0.0334
  730.0000      0.0332
  731.0000      0.0331
  732.0000      0.0330
  733.0000      0.0330
  734.0000      0.0328
  735.0000      0.0328
  736.0000      0.0325
  737.0000      0.0324
  738.0000      0.0323
  739.0000      0.0322
  740.0000      0.0321
  741.0000      0.0320
  742.0000      0.0320
  743.0000      0.0319
  744.0000      0.0319
  745.0000      0.0318
  746.0000      0.0317
  747.0000      0.0317
  748.0000      0.0317
  749.0000      0.0316
  750.0000      0.0315
  751.0000      0.0315
  752.0000      0.0315
  753.0000      0.0314
  754.0000      0.0314
  755.0000      0.0313
  756.0000      0.0312
  757.0000      0.0311
  758.0000      0.0310
  759.0000      0.0310
  760.0000      0.0309
  761.0000      0.0308
  762.0000      0.0308
  763.0000      0.0306
  764.0000      0.0305
  765.0000      0.0305
  766.0000      0.0304
  767.0000      0.0303
  768.0000      0.0302
  769.0000      0.0301
  770.0000      0.0301
  771.0000      0.0301
  772.0000      0.0300
  773.0000      0.0299
  774.0000      0.0299
  775.0000      0.0298
  776.0000      0.0298
  777.0000      0.0298
  778.0000      0.0297
  779.0000      0.0296
  780.0000      0.0296
  781.0000      0.0295
  782.0000      0.0295
  783.0000      0.0294
  784.0000      0.0293
  785.0000      0.0293
  786.0000      0.0292
  787.0000      0.0291
  788.0000      0.0290
  789.0000      0.0290
  790.0000      0.0289
  791.0000      0.0287
  792.0000      0.0287
  793.0000      0.0286
  794.0000      0.0286
  795.0000      0.0285
  796.0000      0.0284
  797.0000      0.0284
  798.0000      0.0283
  799.0000      0.0282
  800.0000      0.0281
