Start Wavelength:    200.0000
End Wavelength:    800.0000
Read Mode:  ABS
Read Average:      0.1000
Nanometer Interval:      1.0000
Time:      0.0000

  200.0000      1.2000
  201.0000      1.1639
  202.0000      1.1520
  203.0000      1.1289
  204.0000      1.1046
  205.0000      1.0843
  206.0000      1.0598
  207.0000      1.0414
  208.0000      1.0131
  209.0000      0.9857
  210.0000      0.9589
  211.0000      0.9295
  212.0000      0.8997
  213.0000      0.8638
  214.0000      0.8340
  215.0000      0.8021
  216.0000      0.7716
  217.0000      0.7368
  218.0000      0.7058
  219.0000      0.6769
  220.0000      0.6482
  221.0000      0.6201
  222.0000      0.5944
  223.0000      0.5716
  224.0000      0.5495
  225.0000      0.5275
  226.0000      0.5093
  227.0000      0.4928
  228.0000      0.4785
  229.0000      0.4626
  230.0000      0.4521
  231.0000      0.4405
  232.0000      0.4313
  233.0000      0.4217
  234.0000      0.4136
  235.0000      0.4072
  236.0000      0.4007
  237.0000      0.3948
  238.0000      0.3896
  239.0000      0.3859
  240.0000      0.3814
  241.0000      0.3772
  242.0000      0.3746
  243.0000      0.3712
  244.0000      0.3690
  245.0000      0.3659
  246.0000      0.3638
  247.0000      0.3616
  248.0000      0.3589
  249.0000      0.3568
  250.0000      0.3552
  251.0000      0.3535
  252.0000      0.3509
  253.0000      0.3496
  254.0000      0.3477
  255.0000      0.3461
  256.0000      0.3442
  257.0000      0.3420
  258.0000      0.3403
  259.0000      0.3379
  260.0000      0.3367
  261.0000      0.3339
  262.0000      0.3322
  263.0000      0.3295
  264.0000      0.3270
  265.0000      0.3251
  266.0000      0.3220
  267.0000      0.3192
  268.0000      0.3166
  269.0000      0.3147
  270.0000      0.3115
  271.0000      0.3083
  272.0000      0.3060
  273.0000      0.3027
  274.0000      0.3004
  275.0000      0.2975
  276.0000      0.2950
  277.0000      0.2923
  278.0000      0.2893
  279.0000      0.2863
  280.0000      0.2833
  281.0000      0.2805
  282.0000      0.2765
  283.0000      0.2742
  284.0000      0.2712
  285.0000      0.2680
  286.0000      0.2644
  287.0000      0.2619
  288.0000      0.2589
  289.0000      0.2558
  290.0000      0.2539
  291.0000      0.2505
  292.0000      0.2477
  293.0000      0.2452
  294.0000      0.2420
  295.0000      0.2390
  296.0000      0.2365
  297.0000      0.2337
  298.0000      0.2307
  299.0000      0.2290
  300.0000      0.2269
  301.0000      0.2236
  302.0000      0.2212
  303.0000      0.2190
  304.0000      0.2169
  305.0000      0.2143
  306.0000      0.2130
  307.0000      0.2102
  308.0000      0.2083
  309.0000      0.2065
  310.0000      0.2038
  311.0000      0.2025
  312.0000      0.2008
  313.0000      0.1979
  314.0000      0.1958
  315.0000      0.1947
  316.0000      0.1930
  317.0000      0.1907
  318.0000      0.1891
  319.0000      0.1863
  320.0000      0.1859
  321.0000      0.1850
  322.0000      0.1824
  323.0000      0.1803
  324.0000      0.1789
  325.0000      0.1778
  326.0000      0.1764
  327.0000      0.1744
  328.0000      0.1732
  329.0000      0.1715
  330.0000      0.1700
  331.0000      0.1695
  332.0000      0.1672
  333.0000      0.1659
  334.0000      0.1646
  335.0000      0.1635
  336.0000      0.1619
  337.0000      0.1606
  338.0000      0.1592
  339.0000      0.1578
  340.0000      0.1571
  341.0000      0.1560
  342.0000      0.1545
  343.0000      0.1534
  344.0000      0.1525
  345.0000      0.1515
  346.0000      0.1505
  347.0000      0.1491
  348.0000      0.1478
  349.0000      0.1474
  350.0000      0.1460
  351.0000      0.1448
  352.0000      0.1438
  353.0000      0.1430
  354.0000      0.1420
  355.0000      0.1407
  356.0000      0.1404
  357.0000      0.1396
  358.0000      0.1396
  359.0000      0.1396
  360.0000      0.1396
  361.0000      0.1358
  362.0000      0.1352
  363.0000      0.1355
  364.0000      0.1354
  365.0000      0.1342
  366.0000      0.1318
  367.0000      0.1325
  368.0000      0.1299
  369.0000      0.1304
  370.0000      0.1284
  371.0000      0.1287
  372.0000      0.1279
  373.0000      0.1272
  374.0000      0.1263
  375.0000      0.1249
  376.0000      0.1249
  377.0000      0.1250
  378.0000      0.1245
  379.0000      0.1218
  380.0000      0.1210
  381.0000      0.1211
  382.0000      0.1197
  383.0000      0.1189
  384.0000      0.1177
  385.0000      0.1189
  386.0000      0.1166
  387.0000      0.1157
  388.0000      0.1151
  389.0000      0.1144
  390.0000      0.1143
  391.0000      0.1125
  392.0000      0.1126
  393.0000      0.1115
  394.0000      0.1115
  395.0000      0.1103
  396.0000      0.1095
  397.0000      0.1092
  398.0000      0.1076
  399.0000      0.1076
  400.0000      0.1068
  401.0000      0.1060
  402.0000      0.1061
  403.0000      0.1050
  404.0000      0.1042
  405.0000      0.1034
  406.0000      0.1031
  407.0000      0.1028
  408.0000      0.1022
  409.0000      0.1016
  410.0000      0.1001
  411.0000      0.1008
  412.0000      0.0995
  413.0000      0.0993
  414.0000      0.0991
  415.0000      0.0988
  416.0000      0.0967
  417.0000      0.0961
  418.0000      0.0958
  419.0000      0.0951
  420.0000      0.0947
  421.0000      0.0940
  422.0000      0.0936
  423.0000      0.0931
  424.0000      0.0924
  425.0000      0.0920
  426.0000      0.0916
  427.0000      0.0912
  428.0000      0.0905
  429.0000      0.0900
  430.0000      0.0896
  431.0000      0.0891
  432.0000      0.0888
  433.0000      0.0884
  434.0000      0.0880
  435.0000      0.0874
  436.0000      0.0870
  437.0000      0.0865
  438.0000      0.0860
  439.0000      0.0856
  440.0000      0.0852
  441.0000      0.0847
  442.0000      0.0844
  443.0000      0.0840
  444.0000      0.0836
  445.0000      0.0832
  446.0000      0.0829
  447.0000      0.0825
  448.0000      0.0821
  449.0000      0.0817
  450.0000      0.0812
  451.0000      0.0809
  452.0000      0.0805
  453.0000      0.0802
  454.0000      0.0798
  455.0000      0.0794
  456.0000      0.0790
  457.0000      0.0786
  458.0000      0.0783
  459.0000      0.0780
  460.0000      0.0776
  461.0000      0.0773
  462.0000      0.0770
  463.0000      0.0769
  464.0000      0.0765
  465.0000      0.0762
  466.0000      0.0760
  467.0000      0.0758
  468.0000      0.0754
  469.0000      0.0751
  470.0000      0.0748
  471.0000      0.0744
  472.0000      0.0742
  473.0000      0.0738
  474.0000      0.0734
  475.0000      0.0732
  476.0000      0.0727
  477.0000      0.0725
  478.0000      0.0721
  479.0000      0.0719
  480.0000      0.0716
  481.0000      0.0713
  482.0000      0.0710
  483.0000      0.0707
  484.0000      0.0704
  485.0000      0.0701
  486.0000      0.0698
  487.0000      0.0696
  488.0000      0.0692
  489.0000      0.0689
  490.0000      0.0687
  491.0000      0.0684
  492.0000      0.0681
  493.0000      0.0679
  494.0000      0.0676
  495.0000      0.0674
  496.0000      0.0672
  497.0000      0.0668
  498.0000      0.0667
  499.0000      0.0664
  500.0000      0.0661
  501.0000      0.0658
  502.0000      0.0655
  503.0000      0.0653
  504.0000      0.0651
  505.0000      0.0648
  506.0000      0.0645
  507.0000      0.0643
  508.0000      0.0641
  509.0000      0.0638
  510.0000      0.0636
  511.0000      0.0634
  512.0000      0.0631
  513.0000      0.0629
  514.0000      0.0627
  515.0000      0.0624
  516.0000      0.0622
  517.0000      0.0620
  518.0000      0.0618
  519.0000      0.0616
  520.0000      0.0614
  521.0000      0.0611
  522.0000      0.0609
  523.0000      0.0607
  524.0000      0.0605
  525.0000      0.0603
  526.0000      0.0601
  527.0000      0.0600
  528.0000      0.0598
  529.0000      0.0595
  530.0000      0.0593
  531.0000      0.0591
  532.0000      0.0589
  533.0000      0.0587
  534.0000      0.0586
  535.0000      0.0583
  536.0000      0.0582
  537.0000      0.0580
  538.0000      0.0578
  539.0000      0.0576
  540.0000      0.0573
  541.0000      0.0571
  542.0000      0.0569
  543.0000      0.0566
  544.0000      0.0563
  545.0000      0.0561
  546.0000      0.0559
  547.0000      0.0556
  548.0000      0.0553
  549.0000      0.0552
  550.0000      0.0549
  551.0000      0.0546
  552.0000      0.0544
  553.0000      0.0542
  554.0000      0.0540
  555.0000      0.0538
  556.0000      0.0537
  557.0000      0.0542
  558.0000      0.0539
  559.0000      0.0536
  560.0000      0.0534
  561.0000      0.0531
  562.0000      0.0528
  563.0000      0.0527
  564.0000      0.0525
  565.0000      0.0523
  566.0000      0.0521
  567.0000      0.0520
  568.0000      0.0518
  569.0000      0.0516
  570.0000      0.0514
  571.0000      0.0512
  572.0000      0.0511
  573.0000      0.0509
  574.0000      0.0507
  575.0000      0.0505
  576.0000      0.0504
  577.0000      0.0502
  578.0000      0.0501
  579.0000      0.0499
  580.0000      0.0497
  581.0000      0.0496
  582.0000      0.0494
  583.0000      0.0493
  584.0000      0.0492
  585.0000      0.0491
  586.0000      0.0490
  587.0000      0.0489
  588.0000      0.0488
  589.0000      0.0487
  590.0000      0.0486
  591.0000      0.0484
  592.0000      0.0483
  593.0000      0.0482
  594.0000      0.0481
  595.0000      0.0480
  596.0000      0.0478
  597.0000      0.0477
  598.0000      0.0476
  599.0000      0.0475
  600.0000      0.0472
  601.0000      0.0471
  602.0000      0.0468
  603.0000      0.0466
  604.0000      0.0465
  605.0000      0.0464
  606.0000      0.0462
  607.0000      0.0461
  608.0000      0.0460
  609.0000      0.0459
  610.0000      0.0457
  611.0000      0.0456
  612.0000      0.0454
  613.0000      0.0453
  614.0000      0.0452
  615.0000      0.0450
  616.0000      0.0449
  617.0000      0.0448
  618.0000      0.0447
  619.0000      0.0446
  620.0000      0.0445
  621.0000      0.0445
  622.0000      0.0444
  623.0000      0.0443
  624.0000      0.0443
  625.0000      0.0442
  626.0000      0.0442
  627.0000      0.0441
  628.0000      0.0441
  629.0000      0.0440
  630.0000      0.0440
  631.0000      0.0439
  632.0000      0.0439
  633.0000      0.0438
  634.0000      0.0437
  635.0000      0.0436
  636.0000      0.0435
  637.0000      0.0434
  638.0000      0.0433
  639.0000      0.0433
  640.0000      0.0432
  641.0000      0.0431
  642.0000      0.0430
  643.0000      0.0430
  644.0000      0.0429
  645.0000      0.0428
  646.0000      0.0427
  647.0000      0.0426
  648.0000      0.0425
  649.0000      0.0425
  650.0000      0.0424
  651.0000      0.0423
  652.0000      0.0422
  653.0000      0.0421
  654.0000      0.0421
  655.0000      0.0420
  656.0000      0.0419
  657.0000      0.0418
  658.0000      0.0417
  659.0000      0.0416
  660.0000      0.0415
  661.0000      0.0415
  662.0000      0.0413
  663.0000      0.0412
  664.0000      0.0411
  665.0000      0.0411
  666.0000      0.0410
  667.0000      0.0409
  668.0000      0.0408
  669.0000      0.0408
  670.0000      0.0407
  671.0000      0.0406
  672.0000      0.0406
  673.0000      0.0404
  674.0000      0.0403
  675.0000      0.0403
  676.0000      0.0402
  677.0000      0.0401
  678.0000      0.0400
  679.0000      0.0400
  680.0000      0.0399
  681.0000      0.0397
  682.0000      0.0396
  683.0000      0.0395
  684.0000      0.0394
  685.0000      0.0393
  686.0000      0.0391
  687.0000      0.0390
  688.0000      0.0389
  689.0000      0.0388
  690.0000      0.0387
  691.0000      0.0386
  692.0000      0.0385
  693.0000      0.0383
  694.0000      0.0383
  695.0000      0.0381
  696.0000      0.0380
  697.0000      0.0379
  698.0000      0.0378
  699.0000      0.0376
  700.0000      0.0375
  701.0000      0.0374
  702.0000      0.0373
  703.0000      0.0372
  704.0000      0.0371
  705.0000      0.0370
  706.0000      0.0369
  707.0000      0.0368
  708.0000      0.0367
  709.0000      0.0366
  710.0000      0.0365
  711.0000      0.0365
  712.0000      0.0365
  713.0000      0.0364
  714.0000      0.0363
  715.0000      0.0363
  716.0000      0.0362
  717.0000      0.0361
  718.0000      0.0360
  719.0000      0.0360
  720.0000      0.0359
  721.0000      0.0358
  722.0000      0.0358
  723.0000      0.0357
  724.0000      0.0357
  725.0000      0.0356
  726.0000      0.0355
  727.0000      0.0354
  728.0000      0.0354
  729.0000      0.0353
  730.0000      0.0351
  731.0000      0.0350
  732.0000      0.0349
  733.0000      0.0348
  734.0000      0.0347
  735.0000      0.0347
  736.0000      0.0351
  737.0000      0.0350
  738.0000      0.0349
  739.0000      0.0347
  740.0000      0.0346
  741.0000      0.0344
  742.0000      0.0344
  743.0000      0.0343
  744.0000      0.0342
  745.0000      0.0341
  746.0000      0.0340
  747.0000      0.0339
  748.0000      0.0338
  749.0000      0.0338
  750.0000      0.0337
  751.0000      0.0336
  752.0000      0.0336
  753.0000      0.0335
  754.0000      0.0335
  755.0000      0.0334
  756.0000      0.0333
  757.0000      0.0332
  758.0000      0.0330
  759.0000      0.0330
  760.0000      0.0329
  761.0000      0.0328
  762.0000      0.0328
  763.0000      0.0327
  764.0000      0.0326
  765.0000      0.0325
  766.0000      0.0324
  767.0000      0.0323
  768.0000      0.0322
  769.0000      0.0321
  770.0000      0.0320
  771.0000      0.0319
  772.0000      0.0319
  773.0000      0.0317
  774.0000      0.0317
  775.0000      0.0315
  776.0000      0.0314
  777.0000      0.0314
  778.0000      0.0312
  779.0000      0.0312
  780.0000      0.0311
  781.0000      0.0311
  782.0000      0.0311
  783.0000      0.0310
  784.0000      0.0310
  785.0000      0.0309
  786.0000      0.0309
  787.0000      0.0308
  788.0000      0.0307
  789.0000      0.0307
  790.0000      0.0307
  791.0000      0.0305
  792.0000      0.0305
  793.0000      0.0304
  794.0000      0.0304
  795.0000      0.0304
  796.0000      0.0304
  797.0000      0.0303
  798.0000      0.0303
  799.0000      0.0303
  800.0000      0.0302
