Start Wavelength:    200.0000
End Wavelength:    800.0000
Read Mode:  ABS
Read Average:      0.1000
Nanometer Interval:      1.0000
Time:      0.0000

  200.0000      0.8786
  201.0000      0.8270
  202.0000      0.8081
  203.0000      0.7843
  204.0000      0.7654
  205.0000      0.7456
  206.0000      0.7283
  207.0000      0.7120
  208.0000      0.6916
  209.0000      0.6702
  210.0000      0.6490
  211.0000      0.6307
  212.0000      0.6098
  213.0000      0.5844
  214.0000      0.5630
  215.0000      0.5401
  216.0000      0.5182
  217.0000      0.4941
  218.0000      0.4743
  219.0000      0.4536
  220.0000      0.4338
  221.0000      0.4142
  222.0000      0.3971
  223.0000      0.3809
  224.0000      0.3658
  225.0000      0.3500
  226.0000      0.3373
  227.0000      0.3263
  228.0000      0.3154
  229.0000      0.3046
  230.0000      0.2951
  231.0000      0.2876
  232.0000      0.2798
  233.0000      0.2724
  234.0000      0.2660
  235.0000      0.2599
  236.0000      0.2549
  237.0000      0.2497
  238.0000      0.2454
  239.0000      0.2413
  240.0000      0.2378
  241.0000      0.2342
  242.0000      0.2308
  243.0000      0.2282
  244.0000      0.2253
  245.0000      0.2225
  246.0000      0.2209
  247.0000      0.2186
  248.0000      0.2165
  249.0000      0.2150
  250.0000      0.2129
  251.0000      0.2111
  252.0000      0.2100
  253.0000      0.2083
  254.0000      0.2063
  255.0000      0.2057
  256.0000      0.2039
  257.0000      0.2030
  258.0000      0.2013
  259.0000      0.1994
  260.0000      0.1983
  261.0000      0.1968
  262.0000      0.1952
  263.0000      0.1939
  264.0000      0.1925
  265.0000      0.1906
  266.0000      0.1894
  267.0000      0.1880
  268.0000      0.1863
  269.0000      0.1843
  270.0000      0.1821
  271.0000      0.1803
  272.0000      0.1787
  273.0000      0.1772
  274.0000      0.1756
  275.0000      0.1728
  276.0000      0.1712
  277.0000      0.1690
  278.0000      0.1673
  279.0000      0.1645
  280.0000      0.1626
  281.0000      0.1604
  282.0000      0.1587
  283.0000      0.1569
  284.0000      0.1540
  285.0000      0.1516
  286.0000      0.1503
  287.0000      0.1482
  288.0000      0.1455
  289.0000      0.1435
  290.0000      0.1405
  291.0000      0.1383
  292.0000      0.1365
  293.0000      0.1342
  294.0000      0.1321
  295.0000      0.1299
  296.0000      0.1277
  297.0000      0.1260
  298.0000      0.1232
  299.0000      0.1218
  300.0000      0.1199
  301.0000      0.1178
  302.0000      0.1165
  303.0000      0.1150
  304.0000      0.1133
  305.0000      0.1117
  306.0000      0.1096
  307.0000      0.1095
  308.0000      0.1073
  309.0000      0.1060
  310.0000      0.1044
  311.0000      0.1026
  312.0000      0.1016
  313.0000      0.1003
  314.0000      0.0991
  315.0000      0.0972
  316.0000      0.0961
  317.0000      0.0949
  318.0000      0.0937
  319.0000      0.0919
  320.0000      0.0913
  321.0000      0.0906
  322.0000      0.0888
  323.0000      0.0874
  324.0000      0.0865
  325.0000      0.0852
  326.0000      0.0841
  327.0000      0.0833
  328.0000      0.0820
  329.0000      0.0810
  330.0000      0.0799
  331.0000      0.0789
  332.0000      0.0778
  333.0000      0.0773
  334.0000      0.0764
  335.0000      0.0751
  336.0000      0.0744
  337.0000      0.0740
  338.0000      0.0732
  339.0000      0.0720
  340.0000      0.0711
  341.0000      0.0702
  342.0000      0.0694
  343.0000      0.0687
  344.0000      0.0679
  345.0000      0.0670
  346.0000      0.0667
  347.0000      0.0657
  348.0000      0.0649
  349.0000      0.0641
  350.0000      0.0633
  351.0000      0.0624
  352.0000      0.0617
  353.0000      0.0612
  354.0000      0.0601
  355.0000      0.0601
  356.0000      0.0593
  357.0000      0.0585
  358.0000      0.0586
  359.0000      0.0590
  360.0000      0.0572
  361.0000      0.0573
  362.0000      0.0547
  363.0000      0.0543
  364.0000      0.0540
  365.0000      0.0541
  366.0000      0.0531
  367.0000      0.0519
  368.0000      0.0502
  369.0000      0.0506
  370.0000      0.0521
  371.0000      0.0501
  372.0000      0.0484
  373.0000      0.0494
  374.0000      0.0484
  375.0000      0.0479
  376.0000      0.0474
  377.0000      0.0469
  378.0000      0.0460
  379.0000      0.0454
  380.0000      0.0446
  381.0000      0.0443
  382.0000      0.0432
  383.0000      0.0437
  384.0000      0.0431
  385.0000      0.0418
  386.0000      0.0406
  387.0000      0.0400
  388.0000      0.0408
  389.0000      0.0408
  390.0000      0.0401
  391.0000      0.0387
  392.0000      0.0382
  393.0000      0.0382
  394.0000      0.0387
  395.0000      0.0379
  396.0000      0.0371
  397.0000      0.0367
  398.0000      0.0363
  399.0000      0.0364
  400.0000      0.0354
  401.0000      0.0353
  402.0000      0.0352
  403.0000      0.0345
  404.0000      0.0344
  405.0000      0.0338
  406.0000      0.0335
  407.0000      0.0337
  408.0000      0.0332
  409.0000      0.0329
  410.0000      0.0321
  411.0000      0.0320
  412.0000      0.0320
  413.0000      0.0321
  414.0000      0.0320
  415.0000      0.0316
  416.0000      0.0299
  417.0000      0.0297
  418.0000      0.0292
  419.0000      0.0289
  420.0000      0.0286
  421.0000      0.0283
  422.0000      0.0281
  423.0000      0.0277
  424.0000      0.0273
  425.0000      0.0270
  426.0000      0.0268
  427.0000      0.0266
  428.0000      0.0262
  429.0000      0.0260
  430.0000      0.0258
  431.0000      0.0255
  432.0000      0.0252
  433.0000      0.0249
  434.0000      0.0247
  435.0000      0.0245
  436.0000      0.0242
  437.0000      0.0239
  438.0000      0.0235
  439.0000      0.0232
  440.0000      0.0230
  441.0000      0.0227
  442.0000      0.0225
  443.0000      0.0221
  444.0000      0.0219
  445.0000      0.0216
  446.0000      0.0214
  447.0000      0.0213
  448.0000      0.0209
  449.0000      0.0208
  450.0000      0.0205
  451.0000      0.0203
  452.0000      0.0201
  453.0000      0.0198
  454.0000      0.0197
  455.0000      0.0195
  456.0000      0.0193
  457.0000      0.0191
  458.0000      0.0190
  459.0000      0.0188
  460.0000      0.0187
  461.0000      0.0185
  462.0000      0.0184
  463.0000      0.0184
  464.0000      0.0184
  465.0000      0.0183
  466.0000      0.0183
  467.0000      0.0183
  468.0000      0.0182
  469.0000      0.0182
  470.0000      0.0181
  471.0000      0.0180
  472.0000      0.0179
  473.0000      0.0178
  474.0000      0.0177
  475.0000      0.0175
  476.0000      0.0174
  477.0000      0.0173
  478.0000      0.0171
  479.0000      0.0170
  480.0000      0.0169
  481.0000      0.0168
  482.0000      0.0167
  483.0000      0.0166
  484.0000      0.0165
  485.0000      0.0164
  486.0000      0.0163
  487.0000      0.0162
  488.0000      0.0161
  489.0000      0.0159
  490.0000      0.0158
  491.0000      0.0157
  492.0000      0.0156
  493.0000      0.0154
  494.0000      0.0152
  495.0000      0.0151
  496.0000      0.0150
  497.0000      0.0148
  498.0000      0.0148
  499.0000      0.0146
  500.0000      0.0145
  501.0000      0.0144
  502.0000      0.0143
  503.0000      0.0142
  504.0000      0.0141
  505.0000      0.0140
  506.0000      0.0138
  507.0000      0.0137
  508.0000      0.0136
  509.0000      0.0135
  510.0000      0.0134
  511.0000      0.0133
  512.0000      0.0132
  513.0000      0.0131
  514.0000      0.0130
  515.0000      0.0129
  516.0000      0.0128
  517.0000      0.0127
  518.0000      0.0127
  519.0000      0.0125
  520.0000      0.0124
  521.0000      0.0123
  522.0000      0.0123
  523.0000      0.0123
  524.0000      0.0122
  525.0000      0.0122
  526.0000      0.0122
  527.0000      0.0122
  528.0000      0.0121
  529.0000      0.0121
  530.0000      0.0120
  531.0000      0.0120
  532.0000      0.0120
  533.0000      0.0119
  534.0000      0.0118
  535.0000      0.0117
  536.0000      0.0117
  537.0000      0.0115
  538.0000      0.0115
  539.0000      0.0114
  540.0000      0.0113
  541.0000      0.0112
  542.0000      0.0111
  543.0000      0.0110
  544.0000      0.0109
  545.0000      0.0108
  546.0000      0.0106
  547.0000      0.0106
  548.0000      0.0105
  549.0000      0.0104
  550.0000      0.0104
  551.0000      0.0103
  552.0000      0.0102
  553.0000      0.0101
  554.0000      0.0100
  555.0000      0.0099
  556.0000      0.0098
  557.0000      0.0106
  558.0000      0.0103
  559.0000      0.0102
  560.0000      0.0099
  561.0000      0.0098
  562.0000      0.0097
  563.0000      0.0096
  564.0000      0.0095
  565.0000      0.0094
  566.0000      0.0093
  567.0000      0.0091
  568.0000      0.0091
  569.0000      0.0090
  570.0000      0.0088
  571.0000      0.0088
  572.0000      0.0086
  573.0000      0.0085
  574.0000      0.0084
  575.0000      0.0083
  576.0000      0.0082
  577.0000      0.0082
  578.0000      0.0081
  579.0000      0.0080
  580.0000      0.0080
  581.0000      0.0079
  582.0000      0.0079
  583.0000      0.0078
  584.0000      0.0078
  585.0000      0.0078
  586.0000      0.0078
  587.0000      0.0077
  588.0000      0.0077
  589.0000      0.0076
  590.0000      0.0076
  591.0000      0.0076
  592.0000      0.0076
  593.0000      0.0075
  594.0000      0.0075
  595.0000      0.0075
  596.0000      0.0075
  597.0000      0.0074
  598.0000      0.0074
  599.0000      0.0074
  600.0000      0.0074
  601.0000      0.0073
  602.0000      0.0072
  603.0000      0.0072
  604.0000      0.0072
  605.0000      0.0072
  606.0000      0.0072
  607.0000      0.0072
  608.0000      0.0072
  609.0000      0.0073
  610.0000      0.0073
  611.0000      0.0073
  612.0000      0.0074
  613.0000      0.0074
  614.0000      0.0074
  615.0000      0.0074
  616.0000      0.0073
  617.0000      0.0073
  618.0000      0.0073
  619.0000      0.0072
  620.0000      0.0072
  621.0000      0.0071
  622.0000      0.0071
  623.0000      0.0071
  624.0000      0.0071
  625.0000      0.0071
  626.0000      0.0071
  627.0000      0.0072
  628.0000      0.0072
  629.0000      0.0071
  630.0000      0.0072
  631.0000      0.0072
  632.0000      0.0073
  633.0000      0.0073
  634.0000      0.0073
  635.0000      0.0073
  636.0000      0.0073
  637.0000      0.0073
  638.0000      0.0073
  639.0000      0.0073
  640.0000      0.0072
  641.0000      0.0072
  642.0000      0.0072
  643.0000      0.0072
  644.0000      0.0072
  645.0000      0.0071
  646.0000      0.0071
  647.0000      0.0071
  648.0000      0.0070
  649.0000      0.0070
  650.0000      0.0070
  651.0000      0.0069
  652.0000      0.0069
  653.0000      0.0069
  654.0000      0.0069
  655.0000      0.0069
  656.0000      0.0069
  657.0000      0.0069
  658.0000      0.0069
  659.0000      0.0069
  660.0000      0.0069
  661.0000      0.0070
  662.0000      0.0069
  663.0000      0.0070
  664.0000      0.0069
  665.0000      0.0069
  666.0000      0.0069
  667.0000      0.0069
  668.0000      0.0069
  669.0000      0.0069
  670.0000      0.0069
  671.0000      0.0068
  672.0000      0.0068
  673.0000      0.0068
  674.0000      0.0068
  675.0000      0.0068
  676.0000      0.0068
  677.0000      0.0068
  678.0000      0.0068
  679.0000      0.0069
  680.0000      0.0069
  681.0000      0.0069
  682.0000      0.0068
  683.0000      0.0068
  684.0000      0.0068
  685.0000      0.0067
  686.0000      0.0067
  687.0000      0.0066
  688.0000      0.0066
  689.0000      0.0066
  690.0000      0.0065
  691.0000      0.0065
  692.0000      0.0064
  693.0000      0.0064
  694.0000      0.0063
  695.0000      0.0063
  696.0000      0.0062
  697.0000      0.0062
  698.0000      0.0062
  699.0000      0.0062
  700.0000      0.0062
  701.0000      0.0062
  702.0000      0.0062
  703.0000      0.0062
  704.0000      0.0061
  705.0000      0.0061
  706.0000      0.0061
  707.0000      0.0061
  708.0000      0.0060
  709.0000      0.0060
  710.0000      0.0060
  711.0000      0.0059
  712.0000      0.0059
  713.0000      0.0058
  714.0000      0.0058
  715.0000      0.0058
  716.0000      0.0058
  717.0000      0.0058
  718.0000      0.0057
  719.0000      0.0057
  720.0000      0.0056
  721.0000      0.0056
  722.0000      0.0056
  723.0000      0.0055
  724.0000      0.0054
  725.0000      0.0055
  726.0000      0.0054
  727.0000      0.0055
  728.0000      0.0054
  729.0000      0.0053
  730.0000      0.0052
  731.0000      0.0052
  732.0000      0.0051
  733.0000      0.0050
  734.0000      0.0050
  735.0000      0.0049
  736.0000      0.0045
  737.0000      0.0044
  738.0000      0.0044
  739.0000      0.0044
  740.0000      0.0044
  741.0000      0.0044
  742.0000      0.0043
  743.0000      0.0043
  744.0000      0.0043
  745.0000      0.0043
  746.0000      0.0042
  747.0000      0.0042
  748.0000      0.0042
  749.0000      0.0043
  750.0000      0.0042
  751.0000      0.0042
  752.0000      0.0042
  753.0000      0.0042
  754.0000      0.0043
  755.0000      0.0044
  756.0000      0.0044
  757.0000      0.0044
  758.0000      0.0044
  759.0000      0.0043
  760.0000      0.0044
  761.0000      0.0043
  762.0000      0.0043
  763.0000      0.0043
  764.0000      0.0043
  765.0000      0.0044
  766.0000      0.0043
  767.0000      0.0043
  768.0000      0.0042
  769.0000      0.0043
  770.0000      0.0043
  771.0000      0.0043
  772.0000      0.0043
  773.0000      0.0043
  774.0000      0.0042
  775.0000      0.0042
  776.0000      0.0042
  777.0000      0.0042
  778.0000      0.0042
  779.0000      0.0042
  780.0000      0.0042
  781.0000      0.0042
  782.0000      0.0041
  783.0000      0.0041
  784.0000      0.0041
  785.0000      0.0041
  786.0000      0.0040
  787.0000      0.0040
  788.0000      0.0039
  789.0000      0.0039
  790.0000      0.0039
  791.0000      0.0038
  792.0000      0.0038
  793.0000      0.0037
  794.0000      0.0037
  795.0000      0.0037
  796.0000      0.0036
  797.0000      0.0036
  798.0000      0.0035
  799.0000      0.0034
  800.0000      0.0034
