Start Wavelength:    200.0000
End Wavelength:    800.0000
Read Mode:  ABS
Read Average:      0.1000
Nanometer Interval:      1.0000
Time:      0.0000

  200.0000      1.0301
  201.0000      0.9839
  202.0000      0.9480
  203.0000      0.9195
  204.0000      0.8960
  205.0000      0.8726
  206.0000      0.8537
  207.0000      0.8329
  208.0000      0.8133
  209.0000      0.7930
  210.0000      0.7755
  211.0000      0.7593
  212.0000      0.7407
  213.0000      0.7215
  214.0000      0.7049
  215.0000      0.6887
  216.0000      0.6704
  217.0000      0.6527
  218.0000      0.6356
  219.0000      0.6215
  220.0000      0.6068
  221.0000      0.5921
  222.0000      0.5780
  223.0000      0.5670
  224.0000      0.5556
  225.0000      0.5429
  226.0000      0.5325
  227.0000      0.5227
  228.0000      0.5147
  229.0000      0.5050
  230.0000      0.4969
  231.0000      0.4897
  232.0000      0.4824
  233.0000      0.4748
  234.0000      0.4690
  235.0000      0.4624
  236.0000      0.4574
  237.0000      0.4514
  238.0000      0.4469
  239.0000      0.4424
  240.0000      0.4381
  241.0000      0.4335
  242.0000      0.4294
  243.0000      0.4264
  244.0000      0.4233
  245.0000      0.4201
  246.0000      0.4171
  247.0000      0.4147
  248.0000      0.4123
  249.0000      0.4101
  250.0000      0.4073
  251.0000      0.4054
  252.0000      0.4033
  253.0000      0.4017
  254.0000      0.3999
  255.0000      0.3981
  256.0000      0.3967
  257.0000      0.3947
  258.0000      0.3924
  259.0000      0.3900
  260.0000      0.3883
  261.0000      0.3873
  262.0000      0.3851
  263.0000      0.3826
  264.0000      0.3815
  265.0000      0.3791
  266.0000      0.3767
  267.0000      0.3742
  268.0000      0.3726
  269.0000      0.3709
  270.0000      0.3689
  271.0000      0.3657
  272.0000      0.3635
  273.0000      0.3616
  274.0000      0.3592
  275.0000      0.3565
  276.0000      0.3535
  277.0000      0.3515
  278.0000      0.3496
  279.0000      0.3475
  280.0000      0.3449
  281.0000      0.3416
  282.0000      0.3397
  283.0000      0.3369
  284.0000      0.3337
  285.0000      0.3320
  286.0000      0.3293
  287.0000      0.3268
  288.0000      0.3236
  289.0000      0.3219
  290.0000      0.3185
  291.0000      0.3154
  292.0000      0.3131
  293.0000      0.3112
  294.0000      0.3094
  295.0000      0.3071
  296.0000      0.3054
  297.0000      0.3026
  298.0000      0.2994
  299.0000      0.2980
  300.0000      0.2959
  301.0000      0.2941
  302.0000      0.2920
  303.0000      0.2904
  304.0000      0.2886
  305.0000      0.2869
  306.0000      0.2844
  307.0000      0.2824
  308.0000      0.2816
  309.0000      0.2794
  310.0000      0.2777
  311.0000      0.2767
  312.0000      0.2748
  313.0000      0.2745
  314.0000      0.2716
  315.0000      0.2700
  316.0000      0.2690
  317.0000      0.2681
  318.0000      0.2662
  319.0000      0.2651
  320.0000      0.2642
  321.0000      0.2636
  322.0000      0.2607
  323.0000      0.2580
  324.0000      0.2573
  325.0000      0.2552
  326.0000      0.2540
  327.0000      0.2534
  328.0000      0.2529
  329.0000      0.2509
  330.0000      0.2499
  331.0000      0.2483
  332.0000      0.2461
  333.0000      0.2451
  334.0000      0.2448
  335.0000      0.2436
  336.0000      0.2426
  337.0000      0.2421
  338.0000      0.2407
  339.0000      0.2393
  340.0000      0.2387
  341.0000      0.2378
  342.0000      0.2366
  343.0000      0.2358
  344.0000      0.2350
  345.0000      0.2340
  346.0000      0.2333
  347.0000      0.2320
  348.0000      0.2307
  349.0000      0.2298
  350.0000      0.2298
  351.0000      0.2294
  352.0000      0.2281
  353.0000      0.2273
  354.0000      0.2263
  355.0000      0.2259
  356.0000      0.2249
  357.0000      0.2249
  358.0000      0.2240
  359.0000      0.2242
  360.0000      0.2240
  361.0000      0.2218
  362.0000      0.2195
  363.0000      0.2191
  364.0000      0.2194
  365.0000      0.2191
  366.0000      0.2198
  367.0000      0.2177
  368.0000      0.2162
  369.0000      0.2152
  370.0000      0.2149
  371.0000      0.2136
  372.0000      0.2125
  373.0000      0.2130
  374.0000      0.2121
  375.0000      0.2121
  376.0000      0.2114
  377.0000      0.2097
  378.0000      0.2086
  379.0000      0.2098
  380.0000      0.2088
  381.0000      0.2084
  382.0000      0.2077
  383.0000      0.2060
  384.0000      0.2060
  385.0000      0.2051
  386.0000      0.2042
  387.0000      0.2040
  388.0000      0.2034
  389.0000      0.2036
  390.0000      0.2027
  391.0000      0.2004
  392.0000      0.2006
  393.0000      0.2007
  394.0000      0.2007
  395.0000      0.2005
  396.0000      0.1994
  397.0000      0.1991
  398.0000      0.1978
  399.0000      0.1977
  400.0000      0.1974
  401.0000      0.1968
  402.0000      0.1967
  403.0000      0.1964
  404.0000      0.1958
  405.0000      0.1951
  406.0000      0.1946
  407.0000      0.1944
  408.0000      0.1939
  409.0000      0.1939
  410.0000      0.1926
  411.0000      0.1927
  412.0000      0.1922
  413.0000      0.1919
  414.0000      0.1921
  415.0000      0.1917
  416.0000      0.1898
  417.0000      0.1894
  418.0000      0.1888
  419.0000      0.1886
  420.0000      0.1883
  421.0000      0.1879
  422.0000      0.1877
  423.0000      0.1871
  424.0000      0.1867
  425.0000      0.1864
  426.0000      0.1860
  427.0000      0.1858
  428.0000      0.1854
  429.0000      0.1851
  430.0000      0.1848
  431.0000      0.1844
  432.0000      0.1841
  433.0000      0.1838
  434.0000      0.1836
  435.0000      0.1832
  436.0000      0.1831
  437.0000      0.1828
  438.0000      0.1822
  439.0000      0.1816
  440.0000      0.1811
  441.0000      0.1804
  442.0000      0.1801
  443.0000      0.1795
  444.0000      0.1790
  445.0000      0.1786
  446.0000      0.1780
  447.0000      0.1777
  448.0000      0.1772
  449.0000      0.1768
  450.0000      0.1763
  451.0000      0.1757
  452.0000      0.1752
  453.0000      0.1746
  454.0000      0.1739
  455.0000      0.1735
  456.0000      0.1729
  457.0000      0.1724
  458.0000      0.1720
  459.0000      0.1716
  460.0000      0.1716
  461.0000      0.1718
  462.0000      0.1723
  463.0000      0.1730
  464.0000      0.1739
  465.0000      0.1747
  466.0000      0.1757
  467.0000      0.1763
  468.0000      0.1768
  469.0000      0.1770
  470.0000      0.1770
  471.0000      0.1768
  472.0000      0.1765
  473.0000      0.1761
  474.0000      0.1755
  475.0000      0.1751
  476.0000      0.1746
  477.0000      0.1742
  478.0000      0.1738
  479.0000      0.1734
  480.0000      0.1730
  481.0000      0.1727
  482.0000      0.1723
  483.0000      0.1721
  484.0000      0.1718
  485.0000      0.1716
  486.0000      0.1713
  487.0000      0.1711
  488.0000      0.1709
  489.0000      0.1706
  490.0000      0.1704
  491.0000      0.1701
  492.0000      0.1699
  493.0000      0.1696
  494.0000      0.1694
  495.0000      0.1692
  496.0000      0.1690
  497.0000      0.1688
  498.0000      0.1687
  499.0000      0.1684
  500.0000      0.1682
  501.0000      0.1680
  502.0000      0.1679
  503.0000      0.1676
  504.0000      0.1674
  505.0000      0.1672
  506.0000      0.1670
  507.0000      0.1668
  508.0000      0.1666
  509.0000      0.1665
  510.0000      0.1663
  511.0000      0.1660
  512.0000      0.1660
  513.0000      0.1658
  514.0000      0.1657
  515.0000      0.1654
  516.0000      0.1653
  517.0000      0.1651
  518.0000      0.1651
  519.0000      0.1649
  520.0000      0.1647
  521.0000      0.1645
  522.0000      0.1644
  523.0000      0.1642
  524.0000      0.1641
  525.0000      0.1640
  526.0000      0.1639
  527.0000      0.1637
  528.0000      0.1636
  529.0000      0.1634
  530.0000      0.1633
  531.0000      0.1632
  532.0000      0.1631
  533.0000      0.1630
  534.0000      0.1628
  535.0000      0.1626
  536.0000      0.1625
  537.0000      0.1623
  538.0000      0.1623
  539.0000      0.1622
  540.0000      0.1621
  541.0000      0.1620
  542.0000      0.1619
  543.0000      0.1618
  544.0000      0.1616
  545.0000      0.1614
  546.0000      0.1611
  547.0000      0.1609
  548.0000      0.1606
  549.0000      0.1603
  550.0000      0.1600
  551.0000      0.1597
  552.0000      0.1595
  553.0000      0.1594
  554.0000      0.1594
  555.0000      0.1595
  556.0000      0.1595
  557.0000      0.1606
  558.0000      0.1604
  559.0000      0.1602
  560.0000      0.1600
  561.0000      0.1598
  562.0000      0.1597
  563.0000      0.1595
  564.0000      0.1593
  565.0000      0.1591
  566.0000      0.1589
  567.0000      0.1588
  568.0000      0.1586
  569.0000      0.1585
  570.0000      0.1583
  571.0000      0.1582
  572.0000      0.1580
  573.0000      0.1578
  574.0000      0.1576
  575.0000      0.1574
  576.0000      0.1573
  577.0000      0.1571
  578.0000      0.1569
  579.0000      0.1566
  580.0000      0.1564
  581.0000      0.1563
  582.0000      0.1561
  583.0000      0.1559
  584.0000      0.1557
  585.0000      0.1556
  586.0000      0.1554
  587.0000      0.1552
  588.0000      0.1551
  589.0000      0.1550
  590.0000      0.1548
  591.0000      0.1547
  592.0000      0.1546
  593.0000      0.1544
  594.0000      0.1543
  595.0000      0.1542
  596.0000      0.1541
  597.0000      0.1540
  598.0000      0.1538
  599.0000      0.1537
  600.0000      0.1537
  601.0000      0.1535
  602.0000      0.1534
  603.0000      0.1533
  604.0000      0.1532
  605.0000      0.1531
  606.0000      0.1530
  607.0000      0.1529
  608.0000      0.1528
  609.0000      0.1526
  610.0000      0.1525
  611.0000      0.1524
  612.0000      0.1523
  613.0000      0.1522
  614.0000      0.1520
  615.0000      0.1519
  616.0000      0.1518
  617.0000      0.1517
  618.0000      0.1516
  619.0000      0.1514
  620.0000      0.1513
  621.0000      0.1511
  622.0000      0.1510
  623.0000      0.1509
  624.0000      0.1508
  625.0000      0.1508
  626.0000      0.1506
  627.0000      0.1505
  628.0000      0.1504
  629.0000      0.1503
  630.0000      0.1503
  631.0000      0.1501
  632.0000      0.1500
  633.0000      0.1500
  634.0000      0.1498
  635.0000      0.1497
  636.0000      0.1497
  637.0000      0.1496
  638.0000      0.1495
  639.0000      0.1494
  640.0000      0.1492
  641.0000      0.1491
  642.0000      0.1490
  643.0000      0.1489
  644.0000      0.1488
  645.0000      0.1486
  646.0000      0.1485
  647.0000      0.1483
  648.0000      0.1482
  649.0000      0.1480
  650.0000      0.1478
  651.0000      0.1477
  652.0000      0.1476
  653.0000      0.1474
  654.0000      0.1473
  655.0000      0.1472
  656.0000      0.1470
  657.0000      0.1470
  658.0000      0.1468
  659.0000      0.1467
  660.0000      0.1466
  661.0000      0.1465
  662.0000      0.1464
  663.0000      0.1463
  664.0000      0.1461
  665.0000      0.1460
  666.0000      0.1459
  667.0000      0.1457
  668.0000      0.1455
  669.0000      0.1454
  670.0000      0.1453
  671.0000      0.1451
  672.0000      0.1449
  673.0000      0.1447
  674.0000      0.1446
  675.0000      0.1445
  676.0000      0.1443
  677.0000      0.1441
  678.0000      0.1439
  679.0000      0.1437
  680.0000      0.1436
  681.0000      0.1435
  682.0000      0.1433
  683.0000      0.1431
  684.0000      0.1429
  685.0000      0.1427
  686.0000      0.1425
  687.0000      0.1423
  688.0000      0.1421
  689.0000      0.1419
  690.0000      0.1417
  691.0000      0.1414
  692.0000      0.1412
  693.0000      0.1410
  694.0000      0.1408
  695.0000      0.1405
  696.0000      0.1403
  697.0000      0.1401
  698.0000      0.1399
  699.0000      0.1398
  700.0000      0.1396
  701.0000      0.1394
  702.0000      0.1392
  703.0000      0.1390
  704.0000      0.1388
  705.0000      0.1386
  706.0000      0.1384
  707.0000      0.1382
  708.0000      0.1381
  709.0000      0.1379
  710.0000      0.1377
  711.0000      0.1375
  712.0000      0.1373
  713.0000      0.1371
  714.0000      0.1368
  715.0000      0.1366
  716.0000      0.1364
  717.0000      0.1362
  718.0000      0.1360
  719.0000      0.1358
  720.0000      0.1355
  721.0000      0.1353
  722.0000      0.1351
  723.0000      0.1349
  724.0000      0.1346
  725.0000      0.1344
  726.0000      0.1342
  727.0000      0.1339
  728.0000      0.1337
  729.0000      0.1335
  730.0000      0.1332
  731.0000      0.1330
  732.0000      0.1327
  733.0000      0.1325
  734.0000      0.1322
  735.0000      0.1320
  736.0000      0.1250
  737.0000      0.1248
  738.0000      0.1245
  739.0000      0.1243
  740.0000      0.1240
  741.0000      0.1238
  742.0000      0.1236
  743.0000      0.1234
  744.0000      0.1231
  745.0000      0.1229
  746.0000      0.1227
  747.0000      0.1225
  748.0000      0.1223
  749.0000      0.1221
  750.0000      0.1218
  751.0000      0.1216
  752.0000      0.1214
  753.0000      0.1211
  754.0000      0.1210
  755.0000      0.1208
  756.0000      0.1205
  757.0000      0.1203
  758.0000      0.1200
  759.0000      0.1198
  760.0000      0.1196
  761.0000      0.1193
  762.0000      0.1191
  763.0000      0.1189
  764.0000      0.1185
  765.0000      0.1183
  766.0000      0.1181
  767.0000      0.1179
  768.0000      0.1176
  769.0000      0.1174
  770.0000      0.1172
  771.0000      0.1170
  772.0000      0.1167
  773.0000      0.1164
  774.0000      0.1161
  775.0000      0.1159
  776.0000      0.1157
  777.0000      0.1154
  778.0000      0.1152
  779.0000      0.1150
  780.0000      0.1147
  781.0000      0.1145
  782.0000      0.1142
  783.0000      0.1140
  784.0000      0.1137
  785.0000      0.1135
  786.0000      0.1132
  787.0000      0.1129
  788.0000      0.1127
  789.0000      0.1124
  790.0000      0.1120
  791.0000      0.1117
  792.0000      0.1114
  793.0000      0.1111
  794.0000      0.1108
  795.0000      0.1105
  796.0000      0.1101
  797.0000      0.1098
  798.0000      0.1094
  799.0000      0.1091
  800.0000      0.1087
