Start Wavelength:    200.0000
End Wavelength:    800.0000
Read Mode:  ABS
Read Average:      0.1000
Nanometer Interval:      1.0000
Time:      0.0000

  200.0000      0.7638
  201.0000      0.7294
  202.0000      0.7036
  203.0000      0.6875
  204.0000      0.6646
  205.0000      0.6479
  206.0000      0.6348
  207.0000      0.6176
  208.0000      0.6017
  209.0000      0.5841
  210.0000      0.5679
  211.0000      0.5536
  212.0000      0.5360
  213.0000      0.5184
  214.0000      0.5011
  215.0000      0.4869
  216.0000      0.4691
  217.0000      0.4532
  218.0000      0.4380
  219.0000      0.4230
  220.0000      0.4091
  221.0000      0.3944
  222.0000      0.3819
  223.0000      0.3702
  224.0000      0.3598
  225.0000      0.3481
  226.0000      0.3396
  227.0000      0.3308
  228.0000      0.3228
  229.0000      0.3145
  230.0000      0.3074
  231.0000      0.3014
  232.0000      0.2954
  233.0000      0.2898
  234.0000      0.2840
  235.0000      0.2804
  236.0000      0.2757
  237.0000      0.2714
  238.0000      0.2679
  239.0000      0.2647
  240.0000      0.2622
  241.0000      0.2589
  242.0000      0.2567
  243.0000      0.2543
  244.0000      0.2525
  245.0000      0.2503
  246.0000      0.2485
  247.0000      0.2470
  248.0000      0.2450
  249.0000      0.2439
  250.0000      0.2425
  251.0000      0.2415
  252.0000      0.2402
  253.0000      0.2394
  254.0000      0.2380
  255.0000      0.2379
  256.0000      0.2365
  257.0000      0.2358
  258.0000      0.2346
  259.0000      0.2333
  260.0000      0.2331
  261.0000      0.2319
  262.0000      0.2311
  263.0000      0.2297
  264.0000      0.2281
  265.0000      0.2280
  266.0000      0.2260
  267.0000      0.2248
  268.0000      0.2234
  269.0000      0.2228
  270.0000      0.2210
  271.0000      0.2190
  272.0000      0.2176
  273.0000      0.2164
  274.0000      0.2152
  275.0000      0.2129
  276.0000      0.2116
  277.0000      0.2093
  278.0000      0.2086
  279.0000      0.2064
  280.0000      0.2045
  281.0000      0.2030
  282.0000      0.2009
  283.0000      0.1997
  284.0000      0.1968
  285.0000      0.1956
  286.0000      0.1936
  287.0000      0.1925
  288.0000      0.1898
  289.0000      0.1874
  290.0000      0.1857
  291.0000      0.1839
  292.0000      0.1825
  293.0000      0.1802
  294.0000      0.1789
  295.0000      0.1769
  296.0000      0.1757
  297.0000      0.1734
  298.0000      0.1714
  299.0000      0.1701
  300.0000      0.1687
  301.0000      0.1674
  302.0000      0.1658
  303.0000      0.1649
  304.0000      0.1631
  305.0000      0.1617
  306.0000      0.1605
  307.0000      0.1588
  308.0000      0.1586
  309.0000      0.1568
  310.0000      0.1555
  311.0000      0.1545
  312.0000      0.1535
  313.0000      0.1528
  314.0000      0.1515
  315.0000      0.1510
  316.0000      0.1495
  317.0000      0.1496
  318.0000      0.1484
  319.0000      0.1467
  320.0000      0.1463
  321.0000      0.1460
  322.0000      0.1534
  323.0000      0.1518
  324.0000      0.1520
  325.0000      0.1503
  326.0000      0.1494
  327.0000      0.1489
  328.0000      0.1485
  329.0000      0.1474
  330.0000      0.1461
  331.0000      0.1454
  332.0000      0.1443
  333.0000      0.1437
  334.0000      0.1431
  335.0000      0.1421
  336.0000      0.1416
  337.0000      0.1405
  338.0000      0.1402
  339.0000      0.1392
  340.0000      0.1392
  341.0000      0.1382
  342.0000      0.1371
  343.0000      0.1363
  344.0000      0.1356
  345.0000      0.1356
  346.0000      0.1349
  347.0000      0.1340
  348.0000      0.1331
  349.0000      0.1325
  350.0000      0.1323
  351.0000      0.1318
  352.0000      0.1309
  353.0000      0.1304
  354.0000      0.1300
  355.0000      0.1294
  356.0000      0.1290
  357.0000      0.1290
  358.0000      0.1315
  359.0000      0.1302
  360.0000      0.1294
  361.0000      0.1278
  362.0000      0.1274
  363.0000      0.1274
  364.0000      0.1269
  365.0000      0.1279
  366.0000      0.1268
  367.0000      0.1245
  368.0000      0.1245
  369.0000      0.1245
  370.0000      0.1257
  371.0000      0.1227
  372.0000      0.1227
  373.0000      0.1232
  374.0000      0.1216
  375.0000      0.1221
  376.0000      0.1201
  377.0000      0.1212
  378.0000      0.1190
  379.0000      0.1202
  380.0000      0.1194
  381.0000      0.1179
  382.0000      0.1184
  383.0000      0.1175
  384.0000      0.1182
  385.0000      0.1169
  386.0000      0.1159
  387.0000      0.1161
  388.0000      0.1153
  389.0000      0.1155
  390.0000      0.1151
  391.0000      0.1137
  392.0000      0.1138
  393.0000      0.1133
  394.0000      0.1139
  395.0000      0.1132
  396.0000      0.1127
  397.0000      0.1124
  398.0000      0.1121
  399.0000      0.1125
  400.0000      0.1115
  401.0000      0.1114
  402.0000      0.1107
  403.0000      0.1106
  404.0000      0.1111
  405.0000      0.1100
  406.0000      0.1101
  407.0000      0.1099
  408.0000      0.1098
  409.0000      0.1092
  410.0000      0.1088
  411.0000      0.1090
  412.0000      0.1083
  413.0000      0.1087
  414.0000      0.1087
  415.0000      0.1081
  416.0000      0.1131
  417.0000      0.1129
  418.0000      0.1124
  419.0000      0.1122
  420.0000      0.1119
  421.0000      0.1118
  422.0000      0.1114
  423.0000      0.1110
  424.0000      0.1106
  425.0000      0.1103
  426.0000      0.1101
  427.0000      0.1098
  428.0000      0.1098
  429.0000      0.1093
  430.0000      0.1092
  431.0000      0.1090
  432.0000      0.1088
  433.0000      0.1085
  434.0000      0.1084
  435.0000      0.1084
  436.0000      0.1082
  437.0000      0.1080
  438.0000      0.1078
  439.0000      0.1073
  440.0000      0.1070
  441.0000      0.1067
  442.0000      0.1063
  443.0000      0.1060
  444.0000      0.1056
  445.0000      0.1054
  446.0000      0.1049
  447.0000      0.1047
  448.0000      0.1042
  449.0000      0.1039
  450.0000      0.1034
  451.0000      0.1030
  452.0000      0.1025
  453.0000      0.1020
  454.0000      0.1016
  455.0000      0.1011
  456.0000      0.1007
  457.0000      0.1003
  458.0000      0.1000
  459.0000      0.0999
  460.0000      0.0998
  461.0000      0.0999
  462.0000      0.1003
  463.0000      0.1006
  464.0000      0.1011
  465.0000      0.1015
  466.0000      0.1020
  467.0000      0.1023
  468.0000      0.1026
  469.0000      0.1027
  470.0000      0.1025
  471.0000      0.1023
  472.0000      0.1019
  473.0000      0.1016
  474.0000      0.1012
  475.0000      0.1009
  476.0000      0.1005
  477.0000      0.1001
  478.0000      0.0998
  479.0000      0.0995
  480.0000      0.0992
  481.0000      0.0990
  482.0000      0.0987
  483.0000      0.0985
  484.0000      0.0982
  485.0000      0.0979
  486.0000      0.0977
  487.0000      0.0975
  488.0000      0.0973
  489.0000      0.0971
  490.0000      0.0969
  491.0000      0.0968
  492.0000      0.0966
  493.0000      0.0963
  494.0000      0.0962
  495.0000      0.0960
  496.0000      0.0958
  497.0000      0.0956
  498.0000      0.0955
  499.0000      0.0953
  500.0000      0.0952
  501.0000      0.0950
  502.0000      0.0949
  503.0000      0.0947
  504.0000      0.0946
  505.0000      0.0945
  506.0000      0.0944
  507.0000      0.0943
  508.0000      0.0942
  509.0000      0.0940
  510.0000      0.0938
  511.0000      0.0936
  512.0000      0.0935
  513.0000      0.0933
  514.0000      0.0932
  515.0000      0.0931
  516.0000      0.0929
  517.0000      0.0927
  518.0000      0.0925
  519.0000      0.0923
  520.0000      0.0921
  521.0000      0.0919
  522.0000      0.0918
  523.0000      0.0916
  524.0000      0.0914
  525.0000      0.0913
  526.0000      0.0911
  527.0000      0.0910
  528.0000      0.0908
  529.0000      0.0907
  530.0000      0.0906
  531.0000      0.0905
  532.0000      0.0904
  533.0000      0.0903
  534.0000      0.0901
  535.0000      0.0900
  536.0000      0.0899
  537.0000      0.0898
  538.0000      0.0897
  539.0000      0.0897
  540.0000      0.0895
  541.0000      0.0894
  542.0000      0.0893
  543.0000      0.0892
  544.0000      0.0891
  545.0000      0.0889
  546.0000      0.0887
  547.0000      0.0886
  548.0000      0.0884
  549.0000      0.0882
  550.0000      0.0880
  551.0000      0.0878
  552.0000      0.0876
  553.0000      0.0875
  554.0000      0.0874
  555.0000      0.0873
  556.0000      0.0872
  557.0000      0.0869
  558.0000      0.0867
  559.0000      0.0866
  560.0000      0.0864
  561.0000      0.0863
  562.0000      0.0862
  563.0000      0.0860
  564.0000      0.0859
  565.0000      0.0858
  566.0000      0.0856
  567.0000      0.0855
  568.0000      0.0854
  569.0000      0.0853
  570.0000      0.0853
  571.0000      0.0852
  572.0000      0.0851
  573.0000      0.0850
  574.0000      0.0849
  575.0000      0.0847
  576.0000      0.0846
  577.0000      0.0845
  578.0000      0.0844
  579.0000      0.0843
  580.0000      0.0842
  581.0000      0.0841
  582.0000      0.0840
  583.0000      0.0839
  584.0000      0.0839
  585.0000      0.0838
  586.0000      0.0837
  587.0000      0.0836
  588.0000      0.0836
  589.0000      0.0835
  590.0000      0.0833
  591.0000      0.0832
  592.0000      0.0831
  593.0000      0.0829
  594.0000      0.0829
  595.0000      0.0828
  596.0000      0.0827
  597.0000      0.0826
  598.0000      0.0825
  599.0000      0.0825
  600.0000      0.0824
  601.0000      0.0823
  602.0000      0.0823
  603.0000      0.0822
  604.0000      0.0822
  605.0000      0.0822
  606.0000      0.0821
  607.0000      0.0820
  608.0000      0.0818
  609.0000      0.0816
  610.0000      0.0815
  611.0000      0.0815
  612.0000      0.0814
  613.0000      0.0814
  614.0000      0.0814
  615.0000      0.0814
  616.0000      0.0814
  617.0000      0.0814
  618.0000      0.0814
  619.0000      0.0814
  620.0000      0.0814
  621.0000      0.0814
  622.0000      0.0815
  623.0000      0.0814
  624.0000      0.0814
  625.0000      0.0814
  626.0000      0.0814
  627.0000      0.0815
  628.0000      0.0815
  629.0000      0.0815
  630.0000      0.0815
  631.0000      0.0815
  632.0000      0.0815
  633.0000      0.0816
  634.0000      0.0816
  635.0000      0.0817
  636.0000      0.0817
  637.0000      0.0817
  638.0000      0.0818
  639.0000      0.0818
  640.0000      0.0818
  641.0000      0.0818
  642.0000      0.0819
  643.0000      0.0819
  644.0000      0.0819
  645.0000      0.0819
  646.0000      0.0819
  647.0000      0.0820
  648.0000      0.0820
  649.0000      0.0821
  650.0000      0.0820
  651.0000      0.0821
  652.0000      0.0821
  653.0000      0.0821
  654.0000      0.0821
  655.0000      0.0822
  656.0000      0.0821
  657.0000      0.0822
  658.0000      0.0821
  659.0000      0.0821
  660.0000      0.0822
  661.0000      0.0821
  662.0000      0.0822
  663.0000      0.0823
  664.0000      0.0823
  665.0000      0.0823
  666.0000      0.0824
  667.0000      0.0824
  668.0000      0.0825
  669.0000      0.0825
  670.0000      0.0825
  671.0000      0.0825
  672.0000      0.0824
  673.0000      0.0824
  674.0000      0.0825
  675.0000      0.0824
  676.0000      0.0823
  677.0000      0.0823
  678.0000      0.0823
  679.0000      0.0822
  680.0000      0.0821
  681.0000      0.0821
  682.0000      0.0819
  683.0000      0.0818
  684.0000      0.0818
  685.0000      0.0817
  686.0000      0.0815
  687.0000      0.0814
  688.0000      0.0812
  689.0000      0.0811
  690.0000      0.0809
  691.0000      0.0807
  692.0000      0.0806
  693.0000      0.0804
  694.0000      0.0802
  695.0000      0.0800
  696.0000      0.0798
  697.0000      0.0796
  698.0000      0.0795
  699.0000      0.0794
  700.0000      0.0793
  701.0000      0.0791
  702.0000      0.0789
  703.0000      0.0789
  704.0000      0.0788
  705.0000      0.0786
  706.0000      0.0785
  707.0000      0.0784
  708.0000      0.0783
  709.0000      0.0781
  710.0000      0.0781
  711.0000      0.0779
  712.0000      0.0778
  713.0000      0.0776
  714.0000      0.0775
  715.0000      0.0774
  716.0000      0.0773
  717.0000      0.0771
  718.0000      0.0769
  719.0000      0.0768
  720.0000      0.0766
  721.0000      0.0765
  722.0000      0.0764
  723.0000      0.0763
  724.0000      0.0762
  725.0000      0.0761
  726.0000      0.0759
  727.0000      0.0758
  728.0000      0.0757
  729.0000      0.0756
  730.0000      0.0754
  731.0000      0.0753
  732.0000      0.0752
  733.0000      0.0751
  734.0000      0.0750
  735.0000      0.0749
  736.0000      0.0740
  737.0000      0.0739
  738.0000      0.0738
  739.0000      0.0737
  740.0000      0.0735
  741.0000      0.0733
  742.0000      0.0733
  743.0000      0.0731
  744.0000      0.0729
  745.0000      0.0729
  746.0000      0.0727
  747.0000      0.0726
  748.0000      0.0724
  749.0000      0.0723
  750.0000      0.0722
  751.0000      0.0721
  752.0000      0.0719
  753.0000      0.0718
  754.0000      0.0717
  755.0000      0.0716
  756.0000      0.0715
  757.0000      0.0713
  758.0000      0.0710
  759.0000      0.0709
  760.0000      0.0708
  761.0000      0.0706
  762.0000      0.0705
  763.0000      0.0703
  764.0000      0.0701
  765.0000      0.0700
  766.0000      0.0698
  767.0000      0.0696
  768.0000      0.0694
  769.0000      0.0693
  770.0000      0.0691
  771.0000      0.0689
  772.0000      0.0687
  773.0000      0.0685
  774.0000      0.0684
  775.0000      0.0682
  776.0000      0.0681
  777.0000      0.0678
  778.0000      0.0676
  779.0000      0.0674
  780.0000      0.0672
  781.0000      0.0670
  782.0000      0.0668
  783.0000      0.0667
  784.0000      0.0665
  785.0000      0.0663
  786.0000      0.0661
  787.0000      0.0659
  788.0000      0.0657
  789.0000      0.0654
  790.0000      0.0652
  791.0000      0.0650
  792.0000      0.0648
  793.0000      0.0646
  794.0000      0.0644
  795.0000      0.0643
  796.0000      0.0641
  797.0000      0.0639
  798.0000      0.0637
  799.0000      0.0635
  800.0000      0.0633
