Start Wavelength:    200.0000
End Wavelength:    800.0000
Read Mode:  ABS
Read Average:      0.1000
Nanometer Interval:      1.0000
Time:      0.0000

  200.0000      0.8298
  201.0000      0.7770
  202.0000      0.7547
  203.0000      0.7312
  204.0000      0.7086
  205.0000      0.6889
  206.0000      0.6725
  207.0000      0.6595
  208.0000      0.6442
  209.0000      0.6281
  210.0000      0.6137
  211.0000      0.5999
  212.0000      0.5857
  213.0000      0.5716
  214.0000      0.5573
  215.0000      0.5462
  216.0000      0.5323
  217.0000      0.5189
  218.0000      0.5070
  219.0000      0.4953
  220.0000      0.4850
  221.0000      0.4732
  222.0000      0.4633
  223.0000      0.4538
  224.0000      0.4447
  225.0000      0.4356
  226.0000      0.4283
  227.0000      0.4202
  228.0000      0.4132
  229.0000      0.4055
  230.0000      0.3990
  231.0000      0.3936
  232.0000      0.3872
  233.0000      0.3813
  234.0000      0.3759
  235.0000      0.3712
  236.0000      0.3668
  237.0000      0.3618
  238.0000      0.3581
  239.0000      0.3538
  240.0000      0.3506
  241.0000      0.3472
  242.0000      0.3433
  243.0000      0.3403
  244.0000      0.3381
  245.0000      0.3349
  246.0000      0.3330
  247.0000      0.3303
  248.0000      0.3279
  249.0000      0.3253
  250.0000      0.3238
  251.0000      0.3218
  252.0000      0.3200
  253.0000      0.3183
  254.0000      0.3163
  255.0000      0.3152
  256.0000      0.3139
  257.0000      0.3125
  258.0000      0.3106
  259.0000      0.3092
  260.0000      0.3078
  261.0000      0.3068
  262.0000      0.3047
  263.0000      0.3028
  264.0000      0.3013
  265.0000      0.2996
  266.0000      0.2973
  267.0000      0.2953
  268.0000      0.2937
  269.0000      0.2915
  270.0000      0.2893
  271.0000      0.2877
  272.0000      0.2852
  273.0000      0.2837
  274.0000      0.2817
  275.0000      0.2796
  276.0000      0.2769
  277.0000      0.2752
  278.0000      0.2732
  279.0000      0.2706
  280.0000      0.2684
  281.0000      0.2666
  282.0000      0.2634
  283.0000      0.2614
  284.0000      0.2583
  285.0000      0.2558
  286.0000      0.2542
  287.0000      0.2518
  288.0000      0.2489
  289.0000      0.2463
  290.0000      0.2436
  291.0000      0.2411
  292.0000      0.2395
  293.0000      0.2375
  294.0000      0.2348
  295.0000      0.2326
  296.0000      0.2309
  297.0000      0.2287
  298.0000      0.2265
  299.0000      0.2247
  300.0000      0.2226
  301.0000      0.2205
  302.0000      0.2192
  303.0000      0.2177
  304.0000      0.2151
  305.0000      0.2136
  306.0000      0.2117
  307.0000      0.2103
  308.0000      0.2089
  309.0000      0.2075
  310.0000      0.2048
  311.0000      0.2037
  312.0000      0.2030
  313.0000      0.2014
  314.0000      0.2003
  315.0000      0.1986
  316.0000      0.1970
  317.0000      0.1959
  318.0000      0.1955
  319.0000      0.1938
  320.0000      0.1920
  321.0000      0.1916
  322.0000      0.1897
  323.0000      0.1891
  324.0000      0.1883
  325.0000      0.1865
  326.0000      0.1855
  327.0000      0.1846
  328.0000      0.1837
  329.0000      0.1818
  330.0000      0.1808
  331.0000      0.1803
  332.0000      0.1790
  333.0000      0.1781
  334.0000      0.1769
  335.0000      0.1755
  336.0000      0.1746
  337.0000      0.1740
  338.0000      0.1730
  339.0000      0.1718
  340.0000      0.1712
  341.0000      0.1705
  342.0000      0.1703
  343.0000      0.1686
  344.0000      0.1681
  345.0000      0.1671
  346.0000      0.1671
  347.0000      0.1664
  348.0000      0.1649
  349.0000      0.1643
  350.0000      0.1634
  351.0000      0.1628
  352.0000      0.1622
  353.0000      0.1612
  354.0000      0.1605
  355.0000      0.1608
  356.0000      0.1601
  357.0000      0.1612
  358.0000      0.1595
  359.0000      0.1617
  360.0000      0.1611
  361.0000      0.1605
  362.0000      0.1590
  363.0000      0.1584
  364.0000      0.1590
  365.0000      0.1598
  366.0000      0.1590
  367.0000      0.1571
  368.0000      0.1558
  369.0000      0.1552
  370.0000      0.1551
  371.0000      0.1552
  372.0000      0.1528
  373.0000      0.1528
  374.0000      0.1522
  375.0000      0.1514
  376.0000      0.1516
  377.0000      0.1522
  378.0000      0.1514
  379.0000      0.1505
  380.0000      0.1504
  381.0000      0.1501
  382.0000      0.1495
  383.0000      0.1499
  384.0000      0.1495
  385.0000      0.1482
  386.0000      0.1469
  387.0000      0.1464
  388.0000      0.1468
  389.0000      0.1476
  390.0000      0.1477
  391.0000      0.1459
  392.0000      0.1455
  393.0000      0.1459
  394.0000      0.1462
  395.0000      0.1461
  396.0000      0.1447
  397.0000      0.1453
  398.0000      0.1449
  399.0000      0.1456
  400.0000      0.1443
  401.0000      0.1434
  402.0000      0.1434
  403.0000      0.1434
  404.0000      0.1430
  405.0000      0.1431
  406.0000      0.1428
  407.0000      0.1428
  408.0000      0.1429
  409.0000      0.1424
  410.0000      0.1420
  411.0000      0.1418
  412.0000      0.1418
  413.0000      0.1417
  414.0000      0.1418
  415.0000      0.1413
  416.0000      0.1435
  417.0000      0.1432
  418.0000      0.1428
  419.0000      0.1428
  420.0000      0.1425
  421.0000      0.1422
  422.0000      0.1422
  423.0000      0.1420
  424.0000      0.1418
  425.0000      0.1415
  426.0000      0.1414
  427.0000      0.1413
  428.0000      0.1412
  429.0000      0.1412
  430.0000      0.1409
  431.0000      0.1407
  432.0000      0.1406
  433.0000      0.1405
  434.0000      0.1404
  435.0000      0.1402
  436.0000      0.1402
  437.0000      0.1401
  438.0000      0.1397
  439.0000      0.1393
  440.0000      0.1390
  441.0000      0.1385
  442.0000      0.1383
  443.0000      0.1380
  444.0000      0.1375
  445.0000      0.1372
  446.0000      0.1369
  447.0000      0.1366
  448.0000      0.1362
  449.0000      0.1359
  450.0000      0.1355
  451.0000      0.1352
  452.0000      0.1347
  453.0000      0.1343
  454.0000      0.1339
  455.0000      0.1336
  456.0000      0.1332
  457.0000      0.1329
  458.0000      0.1327
  459.0000      0.1326
  460.0000      0.1328
  461.0000      0.1331
  462.0000      0.1338
  463.0000      0.1347
  464.0000      0.1358
  465.0000      0.1367
  466.0000      0.1379
  467.0000      0.1388
  468.0000      0.1394
  469.0000      0.1398
  470.0000      0.1399
  471.0000      0.1397
  472.0000      0.1396
  473.0000      0.1393
  474.0000      0.1390
  475.0000      0.1387
  476.0000      0.1383
  477.0000      0.1381
  478.0000      0.1377
  479.0000      0.1374
  480.0000      0.1372
  481.0000      0.1370
  482.0000      0.1368
  483.0000      0.1367
  484.0000      0.1365
  485.0000      0.1364
  486.0000      0.1362
  487.0000      0.1361
  488.0000      0.1360
  489.0000      0.1359
  490.0000      0.1357
  491.0000      0.1356
  492.0000      0.1355
  493.0000      0.1353
  494.0000      0.1351
  495.0000      0.1350
  496.0000      0.1349
  497.0000      0.1347
  498.0000      0.1346
  499.0000      0.1345
  500.0000      0.1344
  501.0000      0.1343
  502.0000      0.1343
  503.0000      0.1342
  504.0000      0.1342
  505.0000      0.1342
  506.0000      0.1341
  507.0000      0.1341
  508.0000      0.1341
  509.0000      0.1341
  510.0000      0.1341
  511.0000      0.1340
  512.0000      0.1340
  513.0000      0.1340
  514.0000      0.1340
  515.0000      0.1340
  516.0000      0.1340
  517.0000      0.1339
  518.0000      0.1340
  519.0000      0.1340
  520.0000      0.1340
  521.0000      0.1339
  522.0000      0.1339
  523.0000      0.1340
  524.0000      0.1339
  525.0000      0.1339
  526.0000      0.1339
  527.0000      0.1339
  528.0000      0.1340
  529.0000      0.1339
  530.0000      0.1339
  531.0000      0.1339
  532.0000      0.1338
  533.0000      0.1338
  534.0000      0.1338
  535.0000      0.1338
  536.0000      0.1338
  537.0000      0.1338
  538.0000      0.1338
  539.0000      0.1339
  540.0000      0.1339
  541.0000      0.1339
  542.0000      0.1340
  543.0000      0.1340
  544.0000      0.1340
  545.0000      0.1340
  546.0000      0.1338
  547.0000      0.1338
  548.0000      0.1337
  549.0000      0.1335
  550.0000      0.1334
  551.0000      0.1332
  552.0000      0.1332
  553.0000      0.1333
  554.0000      0.1335
  555.0000      0.1336
  556.0000      0.1338
  557.0000      0.1380
  558.0000      0.1379
  559.0000      0.1378
  560.0000      0.1377
  561.0000      0.1376
  562.0000      0.1375
  563.0000      0.1374
  564.0000      0.1372
  565.0000      0.1371
  566.0000      0.1369
  567.0000      0.1368
  568.0000      0.1367
  569.0000      0.1366
  570.0000      0.1365
  571.0000      0.1364
  572.0000      0.1363
  573.0000      0.1362
  574.0000      0.1361
  575.0000      0.1360
  576.0000      0.1359
  577.0000      0.1358
  578.0000      0.1357
  579.0000      0.1355
  580.0000      0.1354
  581.0000      0.1353
  582.0000      0.1352
  583.0000      0.1350
  584.0000      0.1349
  585.0000      0.1348
  586.0000      0.1347
  587.0000      0.1346
  588.0000      0.1344
  589.0000      0.1343
  590.0000      0.1342
  591.0000      0.1342
  592.0000      0.1341
  593.0000      0.1340
  594.0000      0.1339
  595.0000      0.1338
  596.0000      0.1338
  597.0000      0.1337
  598.0000      0.1336
  599.0000      0.1335
  600.0000      0.1334
  601.0000      0.1334
  602.0000      0.1333
  603.0000      0.1333
  604.0000      0.1332
  605.0000      0.1331
  606.0000      0.1330
  607.0000      0.1330
  608.0000      0.1330
  609.0000      0.1329
  610.0000      0.1328
  611.0000      0.1328
  612.0000      0.1328
  613.0000      0.1327
  614.0000      0.1326
  615.0000      0.1326
  616.0000      0.1326
  617.0000      0.1325
  618.0000      0.1324
  619.0000      0.1324
  620.0000      0.1323
  621.0000      0.1324
  622.0000      0.1324
  623.0000      0.1323
  624.0000      0.1324
  625.0000      0.1325
  626.0000      0.1325
  627.0000      0.1326
  628.0000      0.1327
  629.0000      0.1328
  630.0000      0.1328
  631.0000      0.1329
  632.0000      0.1329
  633.0000      0.1329
  634.0000      0.1329
  635.0000      0.1329
  636.0000      0.1329
  637.0000      0.1329
  638.0000      0.1329
  639.0000      0.1329
  640.0000      0.1328
  641.0000      0.1328
  642.0000      0.1327
  643.0000      0.1328
  644.0000      0.1327
  645.0000      0.1327
  646.0000      0.1327
  647.0000      0.1327
  648.0000      0.1327
  649.0000      0.1326
  650.0000      0.1325
  651.0000      0.1325
  652.0000      0.1324
  653.0000      0.1323
  654.0000      0.1323
  655.0000      0.1322
  656.0000      0.1321
  657.0000      0.1321
  658.0000      0.1320
  659.0000      0.1320
  660.0000      0.1319
  661.0000      0.1319
  662.0000      0.1318
  663.0000      0.1319
  664.0000      0.1318
  665.0000      0.1318
  666.0000      0.1318
  667.0000      0.1318
  668.0000      0.1318
  669.0000      0.1318
  670.0000      0.1318
  671.0000      0.1318
  672.0000      0.1317
  673.0000      0.1316
  674.0000      0.1316
  675.0000      0.1315
  676.0000      0.1315
  677.0000      0.1314
  678.0000      0.1313
  679.0000      0.1311
  680.0000      0.1311
  681.0000      0.1309
  682.0000      0.1307
  683.0000      0.1306
  684.0000      0.1304
  685.0000      0.1302
  686.0000      0.1301
  687.0000      0.1299
  688.0000      0.1297
  689.0000      0.1296
  690.0000      0.1294
  691.0000      0.1292
  692.0000      0.1291
  693.0000      0.1289
  694.0000      0.1287
  695.0000      0.1285
  696.0000      0.1283
  697.0000      0.1281
  698.0000      0.1279
  699.0000      0.1278
  700.0000      0.1277
  701.0000      0.1275
  702.0000      0.1273
  703.0000      0.1272
  704.0000      0.1270
  705.0000      0.1269
  706.0000      0.1268
  707.0000      0.1266
  708.0000      0.1265
  709.0000      0.1264
  710.0000      0.1263
  711.0000      0.1262
  712.0000      0.1261
  713.0000      0.1259
  714.0000      0.1259
  715.0000      0.1258
  716.0000      0.1257
  717.0000      0.1256
  718.0000      0.1255
  719.0000      0.1254
  720.0000      0.1253
  721.0000      0.1252
  722.0000      0.1252
  723.0000      0.1251
  724.0000      0.1250
  725.0000      0.1249
  726.0000      0.1248
  727.0000      0.1246
  728.0000      0.1245
  729.0000      0.1244
  730.0000      0.1243
  731.0000      0.1242
  732.0000      0.1242
  733.0000      0.1240
  734.0000      0.1239
  735.0000      0.1238
  736.0000      0.1195
  737.0000      0.1194
  738.0000      0.1193
  739.0000      0.1192
  740.0000      0.1191
  741.0000      0.1191
  742.0000      0.1189
  743.0000      0.1188
  744.0000      0.1188
  745.0000      0.1187
  746.0000      0.1185
  747.0000      0.1184
  748.0000      0.1184
  749.0000      0.1183
  750.0000      0.1182
  751.0000      0.1182
  752.0000      0.1181
  753.0000      0.1181
  754.0000      0.1181
  755.0000      0.1181
  756.0000      0.1180
  757.0000      0.1180
  758.0000      0.1179
  759.0000      0.1178
  760.0000      0.1178
  761.0000      0.1177
  762.0000      0.1176
  763.0000      0.1177
  764.0000      0.1175
  765.0000      0.1175
  766.0000      0.1174
  767.0000      0.1174
  768.0000      0.1173
  769.0000      0.1173
  770.0000      0.1173
  771.0000      0.1172
  772.0000      0.1171
  773.0000      0.1171
  774.0000      0.1169
  775.0000      0.1169
  776.0000      0.1168
  777.0000      0.1167
  778.0000      0.1166
  779.0000      0.1165
  780.0000      0.1165
  781.0000      0.1163
  782.0000      0.1162
  783.0000      0.1161
  784.0000      0.1160
  785.0000      0.1159
  786.0000      0.1158
  787.0000      0.1156
  788.0000      0.1155
  789.0000      0.1154
  790.0000      0.1153
  791.0000      0.1151
  792.0000      0.1150
  793.0000      0.1148
  794.0000      0.1147
  795.0000      0.1146
  796.0000      0.1144
  797.0000      0.1142
  798.0000      0.1141
  799.0000      0.1139
  800.0000      0.1138
