Start Wavelength:    200.0000
End Wavelength:    800.0000
Read Mode:  ABS
Read Average:      0.1000
Nanometer Interval:      1.0000
Time:      0.0000

  200.0000      0.6940
  201.0000      0.6425
  202.0000      0.6166
  203.0000      0.5935
  204.0000      0.5697
  205.0000      0.5522
  206.0000      0.5377
  207.0000      0.5227
  208.0000      0.5089
  209.0000      0.4946
  210.0000      0.4804
  211.0000      0.4672
  212.0000      0.4544
  213.0000      0.4391
  214.0000      0.4272
  215.0000      0.4148
  216.0000      0.4021
  217.0000      0.3895
  218.0000      0.3780
  219.0000      0.3673
  220.0000      0.3564
  221.0000      0.3456
  222.0000      0.3358
  223.0000      0.3267
  224.0000      0.3182
  225.0000      0.3091
  226.0000      0.3018
  227.0000      0.2949
  228.0000      0.2883
  229.0000      0.2813
  230.0000      0.2750
  231.0000      0.2693
  232.0000      0.2639
  233.0000      0.2582
  234.0000      0.2538
  235.0000      0.2485
  236.0000      0.2446
  237.0000      0.2400
  238.0000      0.2362
  239.0000      0.2327
  240.0000      0.2296
  241.0000      0.2261
  242.0000      0.2230
  243.0000      0.2205
  244.0000      0.2178
  245.0000      0.2152
  246.0000      0.2132
  247.0000      0.2110
  248.0000      0.2088
  249.0000      0.2071
  250.0000      0.2050
  251.0000      0.2035
  252.0000      0.2019
  253.0000      0.2004
  254.0000      0.1986
  255.0000      0.1978
  256.0000      0.1960
  257.0000      0.1948
  258.0000      0.1931
  259.0000      0.1915
  260.0000      0.1899
  261.0000      0.1885
  262.0000      0.1869
  263.0000      0.1852
  264.0000      0.1836
  265.0000      0.1822
  266.0000      0.1804
  267.0000      0.1783
  268.0000      0.1770
  269.0000      0.1746
  270.0000      0.1732
  271.0000      0.1707
  272.0000      0.1693
  273.0000      0.1674
  274.0000      0.1655
  275.0000      0.1634
  276.0000      0.1610
  277.0000      0.1591
  278.0000      0.1573
  279.0000      0.1547
  280.0000      0.1526
  281.0000      0.1500
  282.0000      0.1480
  283.0000      0.1463
  284.0000      0.1435
  285.0000      0.1409
  286.0000      0.1389
  287.0000      0.1371
  288.0000      0.1344
  289.0000      0.1322
  290.0000      0.1299
  291.0000      0.1276
  292.0000      0.1257
  293.0000      0.1232
  294.0000      0.1214
  295.0000      0.1192
  296.0000      0.1175
  297.0000      0.1149
  298.0000      0.1125
  299.0000      0.1108
  300.0000      0.1095
  301.0000      0.1071
  302.0000      0.1055
  303.0000      0.1041
  304.0000      0.1020
  305.0000      0.1005
  306.0000      0.0985
  307.0000      0.0974
  308.0000      0.0963
  309.0000      0.0947
  310.0000      0.0929
  311.0000      0.0919
  312.0000      0.0903
  313.0000      0.0891
  314.0000      0.0883
  315.0000      0.0865
  316.0000      0.0856
  317.0000      0.0844
  318.0000      0.0833
  319.0000      0.0818
  320.0000      0.0808
  321.0000      0.0806
  322.0000      0.0792
  323.0000      0.0777
  324.0000      0.0774
  325.0000      0.0756
  326.0000      0.0744
  327.0000      0.0738
  328.0000      0.0731
  329.0000      0.0718
  330.0000      0.0707
  331.0000      0.0698
  332.0000      0.0688
  333.0000      0.0681
  334.0000      0.0674
  335.0000      0.0660
  336.0000      0.0651
  337.0000      0.0648
  338.0000      0.0640
  339.0000      0.0628
  340.0000      0.0621
  341.0000      0.0614
  342.0000      0.0604
  343.0000      0.0593
  344.0000      0.0589
  345.0000      0.0580
  346.0000      0.0575
  347.0000      0.0567
  348.0000      0.0558
  349.0000      0.0552
  350.0000      0.0546
  351.0000      0.0541
  352.0000      0.0529
  353.0000      0.0522
  354.0000      0.0515
  355.0000      0.0512
  356.0000      0.0506
  357.0000      0.0520
  358.0000      0.0517
  359.0000      0.0522
  360.0000      0.0506
  361.0000      0.0501
  362.0000      0.0500
  363.0000      0.0484
  364.0000      0.0486
  365.0000      0.0482
  366.0000      0.0470
  367.0000      0.0461
  368.0000      0.0442
  369.0000      0.0444
  370.0000      0.0449
  371.0000      0.0430
  372.0000      0.0421
  373.0000      0.0425
  374.0000      0.0410
  375.0000      0.0411
  376.0000      0.0407
  377.0000      0.0400
  378.0000      0.0397
  379.0000      0.0400
  380.0000      0.0391
  381.0000      0.0384
  382.0000      0.0377
  383.0000      0.0375
  384.0000      0.0378
  385.0000      0.0365
  386.0000      0.0356
  387.0000      0.0355
  388.0000      0.0351
  389.0000      0.0352
  390.0000      0.0351
  391.0000      0.0334
  392.0000      0.0330
  393.0000      0.0330
  394.0000      0.0331
  395.0000      0.0324
  396.0000      0.0317
  397.0000      0.0313
  398.0000      0.0308
  399.0000      0.0310
  400.0000      0.0301
  401.0000      0.0297
  402.0000      0.0293
  403.0000      0.0293
  404.0000      0.0291
  405.0000      0.0288
  406.0000      0.0280
  407.0000      0.0283
  408.0000      0.0280
  409.0000      0.0277
  410.0000      0.0273
  411.0000      0.0271
  412.0000      0.0269
  413.0000      0.0266
  414.0000      0.0270
  415.0000      0.0266
  416.0000      0.0244
  417.0000      0.0242
  418.0000      0.0239
  419.0000      0.0237
  420.0000      0.0235
  421.0000      0.0233
  422.0000      0.0231
  423.0000      0.0228
  424.0000      0.0226
  425.0000      0.0224
  426.0000      0.0221
  427.0000      0.0221
  428.0000      0.0217
  429.0000      0.0216
  430.0000      0.0214
  431.0000      0.0212
  432.0000      0.0211
  433.0000      0.0209
  434.0000      0.0208
  435.0000      0.0206
  436.0000      0.0205
  437.0000      0.0203
  438.0000      0.0201
  439.0000      0.0200
  440.0000      0.0199
  441.0000      0.0197
  442.0000      0.0195
  443.0000      0.0191
  444.0000      0.0189
  445.0000      0.0187
  446.0000      0.0184
  447.0000      0.0183
  448.0000      0.0180
  449.0000      0.0178
  450.0000      0.0175
  451.0000      0.0172
  452.0000      0.0169
  453.0000      0.0168
  454.0000      0.0165
  455.0000      0.0163
  456.0000      0.0160
  457.0000      0.0158
  458.0000      0.0156
  459.0000      0.0153
  460.0000      0.0151
  461.0000      0.0150
  462.0000      0.0148
  463.0000      0.0147
  464.0000      0.0147
  465.0000      0.0145
  466.0000      0.0145
  467.0000      0.0144
  468.0000      0.0144
  469.0000      0.0143
  470.0000      0.0142
  471.0000      0.0141
  472.0000      0.0139
  473.0000      0.0137
  474.0000      0.0136
  475.0000      0.0134
  476.0000      0.0133
  477.0000      0.0131
  478.0000      0.0129
  479.0000      0.0128
  480.0000      0.0126
  481.0000      0.0125
  482.0000      0.0123
  483.0000      0.0123
  484.0000      0.0122
  485.0000      0.0121
  486.0000      0.0119
  487.0000      0.0118
  488.0000      0.0117
  489.0000      0.0116
  490.0000      0.0115
  491.0000      0.0115
  492.0000      0.0114
  493.0000      0.0113
  494.0000      0.0111
  495.0000      0.0111
  496.0000      0.0109
  497.0000      0.0109
  498.0000      0.0108
  499.0000      0.0107
  500.0000      0.0106
  501.0000      0.0105
  502.0000      0.0105
  503.0000      0.0103
  504.0000      0.0103
  505.0000      0.0102
  506.0000      0.0101
  507.0000      0.0100
  508.0000      0.0099
  509.0000      0.0098
  510.0000      0.0097
  511.0000      0.0096
  512.0000      0.0095
  513.0000      0.0093
  514.0000      0.0093
  515.0000      0.0092
  516.0000      0.0092
  517.0000      0.0091
  518.0000      0.0090
  519.0000      0.0090
  520.0000      0.0089
  521.0000      0.0088
  522.0000      0.0088
  523.0000      0.0087
  524.0000      0.0086
  525.0000      0.0086
  526.0000      0.0086
  527.0000      0.0085
  528.0000      0.0084
  529.0000      0.0083
  530.0000      0.0082
  531.0000      0.0081
  532.0000      0.0081
  533.0000      0.0080
  534.0000      0.0079
  535.0000      0.0078
  536.0000      0.0078
  537.0000      0.0077
  538.0000      0.0076
  539.0000      0.0076
  540.0000      0.0076
  541.0000      0.0075
  542.0000      0.0074
  543.0000      0.0074
  544.0000      0.0073
  545.0000      0.0073
  546.0000      0.0071
  547.0000      0.0071
  548.0000      0.0071
  549.0000      0.0070
  550.0000      0.0069
  551.0000      0.0068
  552.0000      0.0067
  553.0000      0.0066
  554.0000      0.0066
  555.0000      0.0065
  556.0000      0.0064
  557.0000      0.0075
  558.0000      0.0073
  559.0000      0.0072
  560.0000      0.0071
  561.0000      0.0070
  562.0000      0.0069
  563.0000      0.0068
  564.0000      0.0068
  565.0000      0.0067
  566.0000      0.0066
  567.0000      0.0065
  568.0000      0.0065
  569.0000      0.0065
  570.0000      0.0064
  571.0000      0.0064
  572.0000      0.0064
  573.0000      0.0063
  574.0000      0.0063
  575.0000      0.0062
  576.0000      0.0062
  577.0000      0.0062
  578.0000      0.0061
  579.0000      0.0060
  580.0000      0.0059
  581.0000      0.0059
  582.0000      0.0058
  583.0000      0.0058
  584.0000      0.0058
  585.0000      0.0058
  586.0000      0.0057
  587.0000      0.0057
  588.0000      0.0057
  589.0000      0.0057
  590.0000      0.0056
  591.0000      0.0056
  592.0000      0.0056
  593.0000      0.0055
  594.0000      0.0055
  595.0000      0.0054
  596.0000      0.0054
  597.0000      0.0053
  598.0000      0.0052
  599.0000      0.0051
  600.0000      0.0051
  601.0000      0.0050
  602.0000      0.0050
  603.0000      0.0049
  604.0000      0.0048
  605.0000      0.0048
  606.0000      0.0047
  607.0000      0.0047
  608.0000      0.0047
  609.0000      0.0047
  610.0000      0.0046
  611.0000      0.0046
  612.0000      0.0046
  613.0000      0.0045
  614.0000      0.0044
  615.0000      0.0044
  616.0000      0.0044
  617.0000      0.0044
  618.0000      0.0043
  619.0000      0.0042
  620.0000      0.0041
  621.0000      0.0041
  622.0000      0.0041
  623.0000      0.0040
  624.0000      0.0040
  625.0000      0.0040
  626.0000      0.0040
  627.0000      0.0040
  628.0000      0.0040
  629.0000      0.0040
  630.0000      0.0041
  631.0000      0.0041
  632.0000      0.0042
  633.0000      0.0042
  634.0000      0.0042
  635.0000      0.0043
  636.0000      0.0043
  637.0000      0.0043
  638.0000      0.0043
  639.0000      0.0043
  640.0000      0.0043
  641.0000      0.0043
  642.0000      0.0043
  643.0000      0.0043
  644.0000      0.0043
  645.0000      0.0043
  646.0000      0.0044
  647.0000      0.0044
  648.0000      0.0045
  649.0000      0.0047
  650.0000      0.0048
  651.0000      0.0048
  652.0000      0.0049
  653.0000      0.0050
  654.0000      0.0050
  655.0000      0.0051
  656.0000      0.0052
  657.0000      0.0052
  658.0000      0.0053
  659.0000      0.0053
  660.0000      0.0054
  661.0000      0.0055
  662.0000      0.0055
  663.0000      0.0056
  664.0000      0.0056
  665.0000      0.0057
  666.0000      0.0057
  667.0000      0.0057
  668.0000      0.0057
  669.0000      0.0058
  670.0000      0.0057
  671.0000      0.0057
  672.0000      0.0057
  673.0000      0.0056
  674.0000      0.0057
  675.0000      0.0057
  676.0000      0.0056
  677.0000      0.0055
  678.0000      0.0055
  679.0000      0.0055
  680.0000      0.0055
  681.0000      0.0054
  682.0000      0.0052
  683.0000      0.0052
  684.0000      0.0051
  685.0000      0.0049
  686.0000      0.0048
  687.0000      0.0046
  688.0000      0.0045
  689.0000      0.0045
  690.0000      0.0043
  691.0000      0.0042
  692.0000      0.0040
  693.0000      0.0039
  694.0000      0.0038
  695.0000      0.0037
  696.0000      0.0037
  697.0000      0.0036
  698.0000      0.0035
  699.0000      0.0035
  700.0000      0.0035
  701.0000      0.0034
  702.0000      0.0033
  703.0000      0.0032
  704.0000      0.0032
  705.0000      0.0031
  706.0000      0.0031
  707.0000      0.0031
  708.0000      0.0030
  709.0000      0.0030
  710.0000      0.0030
  711.0000      0.0030
  712.0000      0.0029
  713.0000      0.0029
  714.0000      0.0029
  715.0000      0.0029
  716.0000      0.0029
  717.0000      0.0030
  718.0000      0.0030
  719.0000      0.0030
  720.0000      0.0030
  721.0000      0.0030
  722.0000      0.0031
  723.0000      0.0031
  724.0000      0.0031
  725.0000      0.0031
  726.0000      0.0031
  727.0000      0.0031
  728.0000      0.0032
  729.0000      0.0032
  730.0000      0.0031
  731.0000      0.0031
  732.0000      0.0031
  733.0000      0.0031
  734.0000      0.0031
  735.0000      0.0031
  736.0000      0.0019
  737.0000      0.0018
  738.0000      0.0018
  739.0000      0.0018
  740.0000      0.0018
  741.0000      0.0017
  742.0000      0.0017
  743.0000      0.0016
  744.0000      0.0016
  745.0000      0.0016
  746.0000      0.0015
  747.0000      0.0015
  748.0000      0.0015
  749.0000      0.0015
  750.0000      0.0014
  751.0000      0.0014
  752.0000      0.0014
  753.0000      0.0013
  754.0000      0.0014
  755.0000      0.0014
  756.0000      0.0014
  757.0000      0.0014
  758.0000      0.0013
  759.0000      0.0013
  760.0000      0.0014
  761.0000      0.0013
  762.0000      0.0013
  763.0000      0.0013
  764.0000      0.0013
  765.0000      0.0013
  766.0000      0.0013
  767.0000      0.0013
  768.0000      0.0013
  769.0000      0.0013
  770.0000      0.0013
  771.0000      0.0012
  772.0000      0.0012
  773.0000      0.0012
  774.0000      0.0012
  775.0000      0.0011
  776.0000      0.0011
  777.0000      0.0011
  778.0000      0.0011
  779.0000      0.0010
  780.0000      0.0011
  781.0000      0.0010
  782.0000      0.0010
  783.0000      0.0010
  784.0000      0.0011
  785.0000      0.0011
  786.0000      0.0011
  787.0000      0.0010
  788.0000      0.0010
  789.0000      0.0010
  790.0000      0.0009
  791.0000      0.0009
  792.0000      0.0009
  793.0000      0.0008
  794.0000      0.0007
  795.0000      0.0007
  796.0000      0.0007
  797.0000      0.0006
  798.0000      0.0006
  799.0000      0.0006
  800.0000      0.0005
