Start Wavelength:    200.0000
End Wavelength:    800.0000
Read Mode:  ABS
Read Average:      0.1000
Nanometer Interval:      1.0000
Time:      0.0000

  200.0000      1.4094
  201.0000      1.3626
  202.0000      1.3522
  203.0000      1.3264
  204.0000      1.3033
  205.0000      1.2810
  206.0000      1.2523
  207.0000      1.2219
  208.0000      1.2008
  209.0000      1.1728
  210.0000      1.1378
  211.0000      1.1052
  212.0000      1.0712
  213.0000      1.0358
  214.0000      1.0026
  215.0000      0.9655
  216.0000      0.9305
  217.0000      0.8959
  218.0000      0.8649
  219.0000      0.8312
  220.0000      0.7998
  221.0000      0.7704
  222.0000      0.7428
  223.0000      0.7194
  224.0000      0.6935
  225.0000      0.6706
  226.0000      0.6517
  227.0000      0.6341
  228.0000      0.6176
  229.0000      0.6012
  230.0000      0.5873
  231.0000      0.5759
  232.0000      0.5643
  233.0000      0.5527
  234.0000      0.5439
  235.0000      0.5359
  236.0000      0.5283
  237.0000      0.5207
  238.0000      0.5148
  239.0000      0.5082
  240.0000      0.5041
  241.0000      0.4986
  242.0000      0.4935
  243.0000      0.4899
  244.0000      0.4864
  245.0000      0.4822
  246.0000      0.4795
  247.0000      0.4765
  248.0000      0.4737
  249.0000      0.4709
  250.0000      0.4689
  251.0000      0.4666
  252.0000      0.4645
  253.0000      0.4620
  254.0000      0.4594
  255.0000      0.4586
  256.0000      0.4565
  257.0000      0.4547
  258.0000      0.4518
  259.0000      0.4501
  260.0000      0.4488
  261.0000      0.4465
  262.0000      0.4440
  263.0000      0.4427
  264.0000      0.4404
  265.0000      0.4390
  266.0000      0.4363
  267.0000      0.4336
  268.0000      0.4328
  269.0000      0.4293
  270.0000      0.4267
  271.0000      0.4254
  272.0000      0.4230
  273.0000      0.4214
  274.0000      0.4182
  275.0000      0.4157
  276.0000      0.4133
  277.0000      0.4114
  278.0000      0.4087
  279.0000      0.4058
  280.0000      0.4038
  281.0000      0.4013
  282.0000      0.3981
  283.0000      0.3955
  284.0000      0.3933
  285.0000      0.3901
  286.0000      0.3882
  287.0000      0.3844
  288.0000      0.3818
  289.0000      0.3802
  290.0000      0.3762
  291.0000      0.3728
  292.0000      0.3712
  293.0000      0.3690
  294.0000      0.3669
  295.0000      0.3631
  296.0000      0.3615
  297.0000      0.3589
  298.0000      0.3560
  299.0000      0.3536
  300.0000      0.3520
  301.0000      0.3493
  302.0000      0.3475
  303.0000      0.3450
  304.0000      0.3433
  305.0000      0.3418
  306.0000      0.3385
  307.0000      0.3367
  308.0000      0.3354
  309.0000      0.3329
  310.0000      0.3307
  311.0000      0.3287
  312.0000      0.3281
  313.0000      0.3261
  314.0000      0.3250
  315.0000      0.3222
  316.0000      0.3201
  317.0000      0.3191
  318.0000      0.3188
  319.0000      0.3158
  320.0000      0.3144
  321.0000      0.3143
  322.0000      0.3095
  323.0000      0.3075
  324.0000      0.3067
  325.0000      0.3044
  326.0000      0.3024
  327.0000      0.3013
  328.0000      0.3006
  329.0000      0.2986
  330.0000      0.2966
  331.0000      0.2950
  332.0000      0.2939
  333.0000      0.2933
  334.0000      0.2911
  335.0000      0.2898
  336.0000      0.2886
  337.0000      0.2880
  338.0000      0.2859
  339.0000      0.2851
  340.0000      0.2840
  341.0000      0.2826
  342.0000      0.2808
  343.0000      0.2797
  344.0000      0.2786
  345.0000      0.2780
  346.0000      0.2771
  347.0000      0.2756
  348.0000      0.2745
  349.0000      0.2736
  350.0000      0.2719
  351.0000      0.2715
  352.0000      0.2706
  353.0000      0.2693
  354.0000      0.2679
  355.0000      0.2679
  356.0000      0.2673
  357.0000      0.2664
  358.0000      0.2664
  359.0000      0.2645
  360.0000      0.2630
  361.0000      0.2628
  362.0000      0.2624
  363.0000      0.2606
  364.0000      0.2598
  365.0000      0.2595
  366.0000      0.2581
  367.0000      0.2552
  368.0000      0.2556
  369.0000      0.2552
  370.0000      0.2544
  371.0000      0.2517
  372.0000      0.2512
  373.0000      0.2518
  374.0000      0.2501
  375.0000      0.2490
  376.0000      0.2474
  377.0000      0.2487
  378.0000      0.2462
  379.0000      0.2452
  380.0000      0.2455
  381.0000      0.2453
  382.0000      0.2426
  383.0000      0.2420
  384.0000      0.2423
  385.0000      0.2410
  386.0000      0.2394
  387.0000      0.2385
  388.0000      0.2388
  389.0000      0.2388
  390.0000      0.2377
  391.0000      0.2358
  392.0000      0.2356
  393.0000      0.2354
  394.0000      0.2342
  395.0000      0.2342
  396.0000      0.2331
  397.0000      0.2324
  398.0000      0.2313
  399.0000      0.2315
  400.0000      0.2308
  401.0000      0.2298
  402.0000      0.2291
  403.0000      0.2290
  404.0000      0.2290
  405.0000      0.2280
  406.0000      0.2267
  407.0000      0.2267
  408.0000      0.2264
  409.0000      0.2252
  410.0000      0.2250
  411.0000      0.2243
  412.0000      0.2237
  413.0000      0.2233
  414.0000      0.2232
  415.0000      0.2228
  416.0000      0.2215
  417.0000      0.2210
  418.0000      0.2203
  419.0000      0.2199
  420.0000      0.2194
  421.0000      0.2189
  422.0000      0.2186
  423.0000      0.2179
  424.0000      0.2174
  425.0000      0.2169
  426.0000      0.2164
  427.0000      0.2159
  428.0000      0.2155
  429.0000      0.2151
  430.0000      0.2146
  431.0000      0.2140
  432.0000      0.2137
  433.0000      0.2133
  434.0000      0.2129
  435.0000      0.2125
  436.0000      0.2121
  437.0000      0.2116
  438.0000      0.2110
  439.0000      0.2104
  440.0000      0.2097
  441.0000      0.2090
  442.0000      0.2086
  443.0000      0.2078
  444.0000      0.2073
  445.0000      0.2067
  446.0000      0.2062
  447.0000      0.2058
  448.0000      0.2050
  449.0000      0.2044
  450.0000      0.2038
  451.0000      0.2032
  452.0000      0.2025
  453.0000      0.2018
  454.0000      0.2012
  455.0000      0.2006
  456.0000      0.1999
  457.0000      0.1993
  458.0000      0.1989
  459.0000      0.1984
  460.0000      0.1983
  461.0000      0.1984
  462.0000      0.1988
  463.0000      0.1992
  464.0000      0.2001
  465.0000      0.2007
  466.0000      0.2015
  467.0000      0.2020
  468.0000      0.2023
  469.0000      0.2025
  470.0000      0.2023
  471.0000      0.2020
  472.0000      0.2016
  473.0000      0.2011
  474.0000      0.2006
  475.0000      0.2001
  476.0000      0.1995
  477.0000      0.1990
  478.0000      0.1985
  479.0000      0.1981
  480.0000      0.1976
  481.0000      0.1972
  482.0000      0.1968
  483.0000      0.1965
  484.0000      0.1960
  485.0000      0.1957
  486.0000      0.1953
  487.0000      0.1950
  488.0000      0.1946
  489.0000      0.1943
  490.0000      0.1940
  491.0000      0.1937
  492.0000      0.1933
  493.0000      0.1929
  494.0000      0.1926
  495.0000      0.1922
  496.0000      0.1919
  497.0000      0.1915
  498.0000      0.1912
  499.0000      0.1908
  500.0000      0.1905
  501.0000      0.1901
  502.0000      0.1898
  503.0000      0.1895
  504.0000      0.1892
  505.0000      0.1888
  506.0000      0.1886
  507.0000      0.1883
  508.0000      0.1880
  509.0000      0.1878
  510.0000      0.1875
  511.0000      0.1872
  512.0000      0.1869
  513.0000      0.1866
  514.0000      0.1864
  515.0000      0.1862
  516.0000      0.1860
  517.0000      0.1857
  518.0000      0.1854
  519.0000      0.1851
  520.0000      0.1849
  521.0000      0.1846
  522.0000      0.1844
  523.0000      0.1842
  524.0000      0.1840
  525.0000      0.1838
  526.0000      0.1836
  527.0000      0.1834
  528.0000      0.1832
  529.0000      0.1830
  530.0000      0.1829
  531.0000      0.1827
  532.0000      0.1826
  533.0000      0.1823
  534.0000      0.1822
  535.0000      0.1820
  536.0000      0.1819
  537.0000      0.1817
  538.0000      0.1816
  539.0000      0.1815
  540.0000      0.1814
  541.0000      0.1813
  542.0000      0.1811
  543.0000      0.1809
  544.0000      0.1808
  545.0000      0.1805
  546.0000      0.1803
  547.0000      0.1801
  548.0000      0.1798
  549.0000      0.1795
  550.0000      0.1791
  551.0000      0.1788
  552.0000      0.1785
  553.0000      0.1784
  554.0000      0.1784
  555.0000      0.1783
  556.0000      0.1783
  557.0000      0.1788
  558.0000      0.1786
  559.0000      0.1784
  560.0000      0.1782
  561.0000      0.1780
  562.0000      0.1778
  563.0000      0.1775
  564.0000      0.1773
  565.0000      0.1771
  566.0000      0.1768
  567.0000      0.1766
  568.0000      0.1764
  569.0000      0.1761
  570.0000      0.1759
  571.0000      0.1757
  572.0000      0.1756
  573.0000      0.1753
  574.0000      0.1751
  575.0000      0.1748
  576.0000      0.1746
  577.0000      0.1744
  578.0000      0.1742
  579.0000      0.1740
  580.0000      0.1738
  581.0000      0.1736
  582.0000      0.1734
  583.0000      0.1732
  584.0000      0.1731
  585.0000      0.1729
  586.0000      0.1727
  587.0000      0.1725
  588.0000      0.1723
  589.0000      0.1721
  590.0000      0.1719
  591.0000      0.1717
  592.0000      0.1715
  593.0000      0.1712
  594.0000      0.1710
  595.0000      0.1708
  596.0000      0.1706
  597.0000      0.1704
  598.0000      0.1702
  599.0000      0.1700
  600.0000      0.1698
  601.0000      0.1696
  602.0000      0.1693
  603.0000      0.1692
  604.0000      0.1690
  605.0000      0.1688
  606.0000      0.1686
  607.0000      0.1684
  608.0000      0.1683
  609.0000      0.1681
  610.0000      0.1679
  611.0000      0.1677
  612.0000      0.1675
  613.0000      0.1674
  614.0000      0.1671
  615.0000      0.1670
  616.0000      0.1668
  617.0000      0.1666
  618.0000      0.1664
  619.0000      0.1662
  620.0000      0.1660
  621.0000      0.1658
  622.0000      0.1657
  623.0000      0.1655
  624.0000      0.1653
  625.0000      0.1652
  626.0000      0.1650
  627.0000      0.1649
  628.0000      0.1647
  629.0000      0.1646
  630.0000      0.1645
  631.0000      0.1644
  632.0000      0.1642
  633.0000      0.1640
  634.0000      0.1639
  635.0000      0.1637
  636.0000      0.1636
  637.0000      0.1634
  638.0000      0.1632
  639.0000      0.1631
  640.0000      0.1630
  641.0000      0.1628
  642.0000      0.1626
  643.0000      0.1625
  644.0000      0.1623
  645.0000      0.1621
  646.0000      0.1620
  647.0000      0.1619
  648.0000      0.1617
  649.0000      0.1616
  650.0000      0.1615
  651.0000      0.1613
  652.0000      0.1611
  653.0000      0.1610
  654.0000      0.1608
  655.0000      0.1607
  656.0000      0.1606
  657.0000      0.1604
  658.0000      0.1603
  659.0000      0.1601
  660.0000      0.1600
  661.0000      0.1599
  662.0000      0.1598
  663.0000      0.1597
  664.0000      0.1596
  665.0000      0.1594
  666.0000      0.1592
  667.0000      0.1591
  668.0000      0.1590
  669.0000      0.1588
  670.0000      0.1587
  671.0000      0.1586
  672.0000      0.1584
  673.0000      0.1581
  674.0000      0.1580
  675.0000      0.1579
  676.0000      0.1577
  677.0000      0.1575
  678.0000      0.1574
  679.0000      0.1573
  680.0000      0.1572
  681.0000      0.1570
  682.0000      0.1568
  683.0000      0.1566
  684.0000      0.1565
  685.0000      0.1563
  686.0000      0.1561
  687.0000      0.1559
  688.0000      0.1558
  689.0000      0.1556
  690.0000      0.1555
  691.0000      0.1554
  692.0000      0.1553
  693.0000      0.1552
  694.0000      0.1550
  695.0000      0.1548
  696.0000      0.1547
  697.0000      0.1545
  698.0000      0.1543
  699.0000      0.1542
  700.0000      0.1541
  701.0000      0.1539
  702.0000      0.1537
  703.0000      0.1536
  704.0000      0.1534
  705.0000      0.1532
  706.0000      0.1530
  707.0000      0.1528
  708.0000      0.1526
  709.0000      0.1524
  710.0000      0.1522
  711.0000      0.1520
  712.0000      0.1517
  713.0000      0.1514
  714.0000      0.1512
  715.0000      0.1510
  716.0000      0.1507
  717.0000      0.1504
  718.0000      0.1502
  719.0000      0.1499
  720.0000      0.1495
  721.0000      0.1493
  722.0000      0.1490
  723.0000      0.1486
  724.0000      0.1484
  725.0000      0.1480
  726.0000      0.1477
  727.0000      0.1475
  728.0000      0.1472
  729.0000      0.1469
  730.0000      0.1466
  731.0000      0.1464
  732.0000      0.1461
  733.0000      0.1459
  734.0000      0.1456
  735.0000      0.1454
  736.0000      0.1388
  737.0000      0.1385
  738.0000      0.1383
  739.0000      0.1381
  740.0000      0.1378
  741.0000      0.1376
  742.0000      0.1374
  743.0000      0.1372
  744.0000      0.1369
  745.0000      0.1367
  746.0000      0.1364
  747.0000      0.1363
  748.0000      0.1361
  749.0000      0.1359
  750.0000      0.1357
  751.0000      0.1355
  752.0000      0.1353
  753.0000      0.1351
  754.0000      0.1350
  755.0000      0.1348
  756.0000      0.1346
  757.0000      0.1344
  758.0000      0.1341
  759.0000      0.1339
  760.0000      0.1337
  761.0000      0.1335
  762.0000      0.1333
  763.0000      0.1331
  764.0000      0.1328
  765.0000      0.1327
  766.0000      0.1324
  767.0000      0.1322
  768.0000      0.1319
  769.0000      0.1317
  770.0000      0.1315
  771.0000      0.1314
  772.0000      0.1311
  773.0000      0.1308
  774.0000      0.1306
  775.0000      0.1304
  776.0000      0.1302
  777.0000      0.1299
  778.0000      0.1298
  779.0000      0.1296
  780.0000      0.1293
  781.0000      0.1291
  782.0000      0.1289
  783.0000      0.1287
  784.0000      0.1284
  785.0000      0.1282
  786.0000      0.1280
  787.0000      0.1278
  788.0000      0.1276
  789.0000      0.1273
  790.0000      0.1271
  791.0000      0.1268
  792.0000      0.1266
  793.0000      0.1264
  794.0000      0.1261
  795.0000      0.1259
  796.0000      0.1257
  797.0000      0.1255
  798.0000      0.1252
  799.0000      0.1250
  800.0000      0.1247
