Start Wavelength:    200.0000
End Wavelength:    800.0000
Read Mode:  ABS
Read Average:      0.1000
Nanometer Interval:      1.0000
Time:      0.0000

  200.0000      1.6809
  201.0000      1.6636
  202.0000      1.6429
  203.0000      1.6097
  204.0000      1.5777
  205.0000      1.5506
  206.0000      1.5271
  207.0000      1.4902
  208.0000      1.4530
  209.0000      1.4213
  210.0000      1.3932
  211.0000      1.3577
  212.0000      1.3214
  213.0000      1.2773
  214.0000      1.2404
  215.0000      1.2061
  216.0000      1.1644
  217.0000      1.1247
  218.0000      1.0849
  219.0000      1.0536
  220.0000      1.0195
  221.0000      0.9849
  222.0000      0.9547
  223.0000      0.9269
  224.0000      0.9016
  225.0000      0.8739
  226.0000      0.8526
  227.0000      0.8319
  228.0000      0.8135
  229.0000      0.7949
  230.0000      0.7798
  231.0000      0.7660
  232.0000      0.7530
  233.0000      0.7401
  234.0000      0.7303
  235.0000      0.7205
  236.0000      0.7118
  237.0000      0.7025
  238.0000      0.6955
  239.0000      0.6888
  240.0000      0.6826
  241.0000      0.6774
  242.0000      0.6703
  243.0000      0.6663
  244.0000      0.6606
  245.0000      0.6568
  246.0000      0.6516
  247.0000      0.6481
  248.0000      0.6440
  249.0000      0.6408
  250.0000      0.6375
  251.0000      0.6344
  252.0000      0.6317
  253.0000      0.6284
  254.0000      0.6251
  255.0000      0.6235
  256.0000      0.6204
  257.0000      0.6167
  258.0000      0.6150
  259.0000      0.6118
  260.0000      0.6093
  261.0000      0.6063
  262.0000      0.6037
  263.0000      0.6002
  264.0000      0.5981
  265.0000      0.5958
  266.0000      0.5923
  267.0000      0.5889
  268.0000      0.5871
  269.0000      0.5843
  270.0000      0.5807
  271.0000      0.5780
  272.0000      0.5745
  273.0000      0.5717
  274.0000      0.5675
  275.0000      0.5652
  276.0000      0.5607
  277.0000      0.5588
  278.0000      0.5542
  279.0000      0.5509
  280.0000      0.5480
  281.0000      0.5443
  282.0000      0.5395
  283.0000      0.5369
  284.0000      0.5338
  285.0000      0.5288
  286.0000      0.5266
  287.0000      0.5211
  288.0000      0.5170
  289.0000      0.5132
  290.0000      0.5098
  291.0000      0.5056
  292.0000      0.5016
  293.0000      0.4974
  294.0000      0.4945
  295.0000      0.4902
  296.0000      0.4886
  297.0000      0.4841
  298.0000      0.4806
  299.0000      0.4774
  300.0000      0.4754
  301.0000      0.4701
  302.0000      0.4678
  303.0000      0.4657
  304.0000      0.4619
  305.0000      0.4583
  306.0000      0.4563
  307.0000      0.4536
  308.0000      0.4499
  309.0000      0.4483
  310.0000      0.4439
  311.0000      0.4421
  312.0000      0.4384
  313.0000      0.4379
  314.0000      0.4336
  315.0000      0.4321
  316.0000      0.4284
  317.0000      0.4276
  318.0000      0.4244
  319.0000      0.4214
  320.0000      0.4196
  321.0000      0.4185
  322.0000      0.4139
  323.0000      0.4123
  324.0000      0.4110
  325.0000      0.4077
  326.0000      0.4051
  327.0000      0.4029
  328.0000      0.4004
  329.0000      0.3985
  330.0000      0.3955
  331.0000      0.3944
  332.0000      0.3911
  333.0000      0.3894
  334.0000      0.3878
  335.0000      0.3858
  336.0000      0.3831
  337.0000      0.3821
  338.0000      0.3795
  339.0000      0.3777
  340.0000      0.3763
  341.0000      0.3743
  342.0000      0.3721
  343.0000      0.3702
  344.0000      0.3692
  345.0000      0.3671
  346.0000      0.3667
  347.0000      0.3639
  348.0000      0.3625
  349.0000      0.3599
  350.0000      0.3590
  351.0000      0.3569
  352.0000      0.3558
  353.0000      0.3539
  354.0000      0.3532
  355.0000      0.3513
  356.0000      0.3506
  357.0000      0.3509
  358.0000      0.3486
  359.0000      0.3493
  360.0000      0.3461
  361.0000      0.3443
  362.0000      0.3416
  363.0000      0.3429
  364.0000      0.3405
  365.0000      0.3427
  366.0000      0.3384
  367.0000      0.3353
  368.0000      0.3318
  369.0000      0.3346
  370.0000      0.3335
  371.0000      0.3309
  372.0000      0.3284
  373.0000      0.3285
  374.0000      0.3243
  375.0000      0.3251
  376.0000      0.3203
  377.0000      0.3234
  378.0000      0.3200
  379.0000      0.3197
  380.0000      0.3168
  381.0000      0.3160
  382.0000      0.3135
  383.0000      0.3139
  384.0000      0.3114
  385.0000      0.3107
  386.0000      0.3086
  387.0000      0.3079
  388.0000      0.3066
  389.0000      0.3071
  390.0000      0.3045
  391.0000      0.3029
  392.0000      0.3013
  393.0000      0.3015
  394.0000      0.3003
  395.0000      0.2988
  396.0000      0.2969
  397.0000      0.2969
  398.0000      0.2950
  399.0000      0.2949
  400.0000      0.2935
  401.0000      0.2920
  402.0000      0.2907
  403.0000      0.2899
  404.0000      0.2893
  405.0000      0.2885
  406.0000      0.2869
  407.0000      0.2864
  408.0000      0.2851
  409.0000      0.2842
  410.0000      0.2834
  411.0000      0.2829
  412.0000      0.2812
  413.0000      0.2809
  414.0000      0.2803
  415.0000      0.2796
  416.0000      0.2789
  417.0000      0.2779
  418.0000      0.2770
  419.0000      0.2760
  420.0000      0.2754
  421.0000      0.2744
  422.0000      0.2738
  423.0000      0.2727
  424.0000      0.2718
  425.0000      0.2712
  426.0000      0.2701
  427.0000      0.2693
  428.0000      0.2683
  429.0000      0.2676
  430.0000      0.2667
  431.0000      0.2659
  432.0000      0.2650
  433.0000      0.2640
  434.0000      0.2633
  435.0000      0.2627
  436.0000      0.2618
  437.0000      0.2611
  438.0000      0.2601
  439.0000      0.2592
  440.0000      0.2582
  441.0000      0.2572
  442.0000      0.2565
  443.0000      0.2555
  444.0000      0.2546
  445.0000      0.2539
  446.0000      0.2530
  447.0000      0.2523
  448.0000      0.2514
  449.0000      0.2505
  450.0000      0.2497
  451.0000      0.2488
  452.0000      0.2479
  453.0000      0.2470
  454.0000      0.2461
  455.0000      0.2453
  456.0000      0.2444
  457.0000      0.2437
  458.0000      0.2429
  459.0000      0.2423
  460.0000      0.2419
  461.0000      0.2415
  462.0000      0.2415
  463.0000      0.2416
  464.0000      0.2419
  465.0000      0.2420
  466.0000      0.2422
  467.0000      0.2422
  468.0000      0.2423
  469.0000      0.2420
  470.0000      0.2417
  471.0000      0.2411
  472.0000      0.2405
  473.0000      0.2399
  474.0000      0.2392
  475.0000      0.2386
  476.0000      0.2379
  477.0000      0.2372
  478.0000      0.2365
  479.0000      0.2358
  480.0000      0.2353
  481.0000      0.2347
  482.0000      0.2340
  483.0000      0.2335
  484.0000      0.2330
  485.0000      0.2324
  486.0000      0.2318
  487.0000      0.2313
  488.0000      0.2307
  489.0000      0.2303
  490.0000      0.2297
  491.0000      0.2293
  492.0000      0.2288
  493.0000      0.2284
  494.0000      0.2279
  495.0000      0.2275
  496.0000      0.2270
  497.0000      0.2266
  498.0000      0.2262
  499.0000      0.2258
  500.0000      0.2254
  501.0000      0.2250
  502.0000      0.2246
  503.0000      0.2242
  504.0000      0.2237
  505.0000      0.2232
  506.0000      0.2228
  507.0000      0.2224
  508.0000      0.2220
  509.0000      0.2215
  510.0000      0.2211
  511.0000      0.2206
  512.0000      0.2202
  513.0000      0.2197
  514.0000      0.2194
  515.0000      0.2189
  516.0000      0.2186
  517.0000      0.2182
  518.0000      0.2179
  519.0000      0.2174
  520.0000      0.2169
  521.0000      0.2165
  522.0000      0.2161
  523.0000      0.2156
  524.0000      0.2153
  525.0000      0.2149
  526.0000      0.2146
  527.0000      0.2142
  528.0000      0.2138
  529.0000      0.2134
  530.0000      0.2130
  531.0000      0.2127
  532.0000      0.2123
  533.0000      0.2120
  534.0000      0.2116
  535.0000      0.2112
  536.0000      0.2109
  537.0000      0.2105
  538.0000      0.2102
  539.0000      0.2099
  540.0000      0.2094
  541.0000      0.2092
  542.0000      0.2089
  543.0000      0.2086
  544.0000      0.2082
  545.0000      0.2078
  546.0000      0.2074
  547.0000      0.2070
  548.0000      0.2066
  549.0000      0.2061
  550.0000      0.2057
  551.0000      0.2053
  552.0000      0.2048
  553.0000      0.2045
  554.0000      0.2043
  555.0000      0.2040
  556.0000      0.2039
  557.0000      0.2036
  558.0000      0.2032
  559.0000      0.2029
  560.0000      0.2025
  561.0000      0.2021
  562.0000      0.2018
  563.0000      0.2014
  564.0000      0.2010
  565.0000      0.2006
  566.0000      0.2002
  567.0000      0.1998
  568.0000      0.1995
  569.0000      0.1991
  570.0000      0.1987
  571.0000      0.1984
  572.0000      0.1980
  573.0000      0.1976
  574.0000      0.1972
  575.0000      0.1969
  576.0000      0.1965
  577.0000      0.1962
  578.0000      0.1958
  579.0000      0.1955
  580.0000      0.1952
  581.0000      0.1949
  582.0000      0.1946
  583.0000      0.1943
  584.0000      0.1940
  585.0000      0.1937
  586.0000      0.1934
  587.0000      0.1931
  588.0000      0.1929
  589.0000      0.1926
  590.0000      0.1924
  591.0000      0.1921
  592.0000      0.1919
  593.0000      0.1916
  594.0000      0.1913
  595.0000      0.1910
  596.0000      0.1907
  597.0000      0.1904
  598.0000      0.1901
  599.0000      0.1897
  600.0000      0.1894
  601.0000      0.1891
  602.0000      0.1887
  603.0000      0.1884
  604.0000      0.1881
  605.0000      0.1878
  606.0000      0.1875
  607.0000      0.1872
  608.0000      0.1869
  609.0000      0.1866
  610.0000      0.1863
  611.0000      0.1860
  612.0000      0.1857
  613.0000      0.1854
  614.0000      0.1851
  615.0000      0.1847
  616.0000      0.1844
  617.0000      0.1841
  618.0000      0.1838
  619.0000      0.1835
  620.0000      0.1832
  621.0000      0.1829
  622.0000      0.1827
  623.0000      0.1823
  624.0000      0.1820
  625.0000      0.1818
  626.0000      0.1814
  627.0000      0.1811
  628.0000      0.1807
  629.0000      0.1804
  630.0000      0.1801
  631.0000      0.1798
  632.0000      0.1794
  633.0000      0.1790
  634.0000      0.1787
  635.0000      0.1783
  636.0000      0.1780
  637.0000      0.1776
  638.0000      0.1774
  639.0000      0.1771
  640.0000      0.1768
  641.0000      0.1764
  642.0000      0.1761
  643.0000      0.1758
  644.0000      0.1755
  645.0000      0.1752
  646.0000      0.1749
  647.0000      0.1747
  648.0000      0.1744
  649.0000      0.1741
  650.0000      0.1739
  651.0000      0.1736
  652.0000      0.1733
  653.0000      0.1730
  654.0000      0.1728
  655.0000      0.1726
  656.0000      0.1722
  657.0000      0.1720
  658.0000      0.1717
  659.0000      0.1714
  660.0000      0.1711
  661.0000      0.1710
  662.0000      0.1707
  663.0000      0.1705
  664.0000      0.1703
  665.0000      0.1701
  666.0000      0.1700
  667.0000      0.1698
  668.0000      0.1697
  669.0000      0.1695
  670.0000      0.1692
  671.0000      0.1690
  672.0000      0.1688
  673.0000      0.1686
  674.0000      0.1683
  675.0000      0.1681
  676.0000      0.1678
  677.0000      0.1676
  678.0000      0.1673
  679.0000      0.1671
  680.0000      0.1668
  681.0000      0.1665
  682.0000      0.1662
  683.0000      0.1659
  684.0000      0.1656
  685.0000      0.1653
  686.0000      0.1651
  687.0000      0.1647
  688.0000      0.1643
  689.0000      0.1640
  690.0000      0.1638
  691.0000      0.1634
  692.0000      0.1630
  693.0000      0.1627
  694.0000      0.1624
  695.0000      0.1620
  696.0000      0.1616
  697.0000      0.1613
  698.0000      0.1610
  699.0000      0.1606
  700.0000      0.1602
  701.0000      0.1598
  702.0000      0.1593
  703.0000      0.1589
  704.0000      0.1585
  705.0000      0.1581
  706.0000      0.1577
  707.0000      0.1573
  708.0000      0.1570
  709.0000      0.1566
  710.0000      0.1563
  711.0000      0.1560
  712.0000      0.1556
  713.0000      0.1553
  714.0000      0.1550
  715.0000      0.1547
  716.0000      0.1543
  717.0000      0.1540
  718.0000      0.1537
  719.0000      0.1535
  720.0000      0.1531
  721.0000      0.1528
  722.0000      0.1526
  723.0000      0.1523
  724.0000      0.1520
  725.0000      0.1517
  726.0000      0.1514
  727.0000      0.1511
  728.0000      0.1508
  729.0000      0.1505
  730.0000      0.1502
  731.0000      0.1499
  732.0000      0.1496
  733.0000      0.1492
  734.0000      0.1489
  735.0000      0.1486
  736.0000      0.1436
  737.0000      0.1433
  738.0000      0.1429
  739.0000      0.1426
  740.0000      0.1422
  741.0000      0.1420
  742.0000      0.1416
  743.0000      0.1413
  744.0000      0.1409
  745.0000      0.1407
  746.0000      0.1403
  747.0000      0.1401
  748.0000      0.1398
  749.0000      0.1395
  750.0000      0.1393
  751.0000      0.1390
  752.0000      0.1387
  753.0000      0.1384
  754.0000      0.1381
  755.0000      0.1379
  756.0000      0.1376
  757.0000      0.1373
  758.0000      0.1370
  759.0000      0.1367
  760.0000      0.1365
  761.0000      0.1362
  762.0000      0.1358
  763.0000      0.1356
  764.0000      0.1352
  765.0000      0.1349
  766.0000      0.1346
  767.0000      0.1343
  768.0000      0.1339
  769.0000      0.1336
  770.0000      0.1333
  771.0000      0.1330
  772.0000      0.1327
  773.0000      0.1324
  774.0000      0.1320
  775.0000      0.1317
  776.0000      0.1314
  777.0000      0.1310
  778.0000      0.1308
  779.0000      0.1304
  780.0000      0.1300
  781.0000      0.1298
  782.0000      0.1295
  783.0000      0.1291
  784.0000      0.1288
  785.0000      0.1284
  786.0000      0.1281
  787.0000      0.1278
  788.0000      0.1275
  789.0000      0.1272
  790.0000      0.1269
  791.0000      0.1265
  792.0000      0.1262
  793.0000      0.1259
  794.0000      0.1256
  795.0000      0.1253
  796.0000      0.1249
  797.0000      0.1246
  798.0000      0.1242
  799.0000      0.1239
  800.0000      0.1236
