Start Wavelength:    200.0000
End Wavelength:    800.0000
Read Mode:  ABS
Read Average:      0.1000
Nanometer Interval:      1.0000
Time:      0.0000

  200.0000      0.6725
  201.0000      0.6276
  202.0000      0.6006
  203.0000      0.5819
  204.0000      0.5636
  205.0000      0.5449
  206.0000      0.5300
  207.0000      0.5159
  208.0000      0.5044
  209.0000      0.4907
  210.0000      0.4771
  211.0000      0.4633
  212.0000      0.4499
  213.0000      0.4367
  214.0000      0.4250
  215.0000      0.4131
  216.0000      0.4010
  217.0000      0.3872
  218.0000      0.3766
  219.0000      0.3661
  220.0000      0.3555
  221.0000      0.3449
  222.0000      0.3356
  223.0000      0.3273
  224.0000      0.3184
  225.0000      0.3099
  226.0000      0.3032
  227.0000      0.2958
  228.0000      0.2894
  229.0000      0.2823
  230.0000      0.2762
  231.0000      0.2709
  232.0000      0.2657
  233.0000      0.2600
  234.0000      0.2554
  235.0000      0.2507
  236.0000      0.2467
  237.0000      0.2424
  238.0000      0.2394
  239.0000      0.2356
  240.0000      0.2324
  241.0000      0.2291
  242.0000      0.2258
  243.0000      0.2241
  244.0000      0.2211
  245.0000      0.2181
  246.0000      0.2159
  247.0000      0.2145
  248.0000      0.2123
  249.0000      0.2108
  250.0000      0.2090
  251.0000      0.2069
  252.0000      0.2053
  253.0000      0.2042
  254.0000      0.2024
  255.0000      0.2016
  256.0000      0.1999
  257.0000      0.1984
  258.0000      0.1972
  259.0000      0.1955
  260.0000      0.1940
  261.0000      0.1932
  262.0000      0.1915
  263.0000      0.1896
  264.0000      0.1885
  265.0000      0.1871
  266.0000      0.1854
  267.0000      0.1829
  268.0000      0.1819
  269.0000      0.1795
  270.0000      0.1782
  271.0000      0.1761
  272.0000      0.1742
  273.0000      0.1727
  274.0000      0.1706
  275.0000      0.1680
  276.0000      0.1666
  277.0000      0.1646
  278.0000      0.1628
  279.0000      0.1600
  280.0000      0.1578
  281.0000      0.1560
  282.0000      0.1533
  283.0000      0.1519
  284.0000      0.1489
  285.0000      0.1462
  286.0000      0.1443
  287.0000      0.1421
  288.0000      0.1400
  289.0000      0.1381
  290.0000      0.1352
  291.0000      0.1331
  292.0000      0.1313
  293.0000      0.1292
  294.0000      0.1275
  295.0000      0.1250
  296.0000      0.1228
  297.0000      0.1204
  298.0000      0.1189
  299.0000      0.1181
  300.0000      0.1157
  301.0000      0.1135
  302.0000      0.1122
  303.0000      0.1105
  304.0000      0.1090
  305.0000      0.1079
  306.0000      0.1052
  307.0000      0.1039
  308.0000      0.1028
  309.0000      0.1013
  310.0000      0.0995
  311.0000      0.0980
  312.0000      0.0964
  313.0000      0.0954
  314.0000      0.0940
  315.0000      0.0928
  316.0000      0.0915
  317.0000      0.0899
  318.0000      0.0892
  319.0000      0.0879
  320.0000      0.0865
  321.0000      0.0874
  322.0000      0.0844
  323.0000      0.0830
  324.0000      0.0817
  325.0000      0.0800
  326.0000      0.0791
  327.0000      0.0785
  328.0000      0.0779
  329.0000      0.0766
  330.0000      0.0752
  331.0000      0.0747
  332.0000      0.0733
  333.0000      0.0729
  334.0000      0.0722
  335.0000      0.0707
  336.0000      0.0698
  337.0000      0.0690
  338.0000      0.0682
  339.0000      0.0672
  340.0000      0.0662
  341.0000      0.0654
  342.0000      0.0643
  343.0000      0.0636
  344.0000      0.0628
  345.0000      0.0621
  346.0000      0.0613
  347.0000      0.0603
  348.0000      0.0593
  349.0000      0.0590
  350.0000      0.0580
  351.0000      0.0571
  352.0000      0.0560
  353.0000      0.0557
  354.0000      0.0547
  355.0000      0.0539
  356.0000      0.0539
  357.0000      0.0535
  358.0000      0.0529
  359.0000      0.0527
  360.0000      0.0520
  361.0000      0.0515
  362.0000      0.0509
  363.0000      0.0502
  364.0000      0.0497
  365.0000      0.0485
  366.0000      0.0485
  367.0000      0.0473
  368.0000      0.0474
  369.0000      0.0467
  370.0000      0.0458
  371.0000      0.0450
  372.0000      0.0439
  373.0000      0.0450
  374.0000      0.0444
  375.0000      0.0437
  376.0000      0.0424
  377.0000      0.0427
  378.0000      0.0418
  379.0000      0.0426
  380.0000      0.0408
  381.0000      0.0403
  382.0000      0.0400
  383.0000      0.0401
  384.0000      0.0406
  385.0000      0.0391
  386.0000      0.0377
  387.0000      0.0378
  388.0000      0.0380
  389.0000      0.0377
  390.0000      0.0371
  391.0000      0.0358
  392.0000      0.0361
  393.0000      0.0358
  394.0000      0.0357
  395.0000      0.0347
  396.0000      0.0342
  397.0000      0.0342
  398.0000      0.0342
  399.0000      0.0341
  400.0000      0.0327
  401.0000      0.0324
  402.0000      0.0322
  403.0000      0.0319
  404.0000      0.0318
  405.0000      0.0311
  406.0000      0.0307
  407.0000      0.0307
  408.0000      0.0306
  409.0000      0.0297
  410.0000      0.0292
  411.0000      0.0295
  412.0000      0.0293
  413.0000      0.0290
  414.0000      0.0287
  415.0000      0.0282
  416.0000      0.0292
  417.0000      0.0291
  418.0000      0.0287
  419.0000      0.0284
  420.0000      0.0282
  421.0000      0.0279
  422.0000      0.0277
  423.0000      0.0273
  424.0000      0.0270
  425.0000      0.0267
  426.0000      0.0265
  427.0000      0.0263
  428.0000      0.0260
  429.0000      0.0257
  430.0000      0.0255
  431.0000      0.0252
  432.0000      0.0250
  433.0000      0.0247
  434.0000      0.0243
  435.0000      0.0240
  436.0000      0.0237
  437.0000      0.0236
  438.0000      0.0233
  439.0000      0.0230
  440.0000      0.0227
  441.0000      0.0225
  442.0000      0.0223
  443.0000      0.0219
  444.0000      0.0217
  445.0000      0.0215
  446.0000      0.0214
  447.0000      0.0214
  448.0000      0.0213
  449.0000      0.0212
  450.0000      0.0210
  451.0000      0.0209
  452.0000      0.0208
  453.0000      0.0206
  454.0000      0.0204
  455.0000      0.0203
  456.0000      0.0201
  457.0000      0.0199
  458.0000      0.0197
  459.0000      0.0195
  460.0000      0.0195
  461.0000      0.0193
  462.0000      0.0193
  463.0000      0.0193
  464.0000      0.0193
  465.0000      0.0191
  466.0000      0.0191
  467.0000      0.0190
  468.0000      0.0189
  469.0000      0.0188
  470.0000      0.0187
  471.0000      0.0185
  472.0000      0.0183
  473.0000      0.0181
  474.0000      0.0179
  475.0000      0.0177
  476.0000      0.0175
  477.0000      0.0173
  478.0000      0.0171
  479.0000      0.0169
  480.0000      0.0168
  481.0000      0.0166
  482.0000      0.0163
  483.0000      0.0161
  484.0000      0.0159
  485.0000      0.0157
  486.0000      0.0154
  487.0000      0.0151
  488.0000      0.0149
  489.0000      0.0147
  490.0000      0.0146
  491.0000      0.0145
  492.0000      0.0143
  493.0000      0.0142
  494.0000      0.0140
  495.0000      0.0139
  496.0000      0.0137
  497.0000      0.0137
  498.0000      0.0136
  499.0000      0.0135
  500.0000      0.0134
  501.0000      0.0133
  502.0000      0.0132
  503.0000      0.0132
  504.0000      0.0132
  505.0000      0.0131
  506.0000      0.0131
  507.0000      0.0131
  508.0000      0.0131
  509.0000      0.0131
  510.0000      0.0131
  511.0000      0.0131
  512.0000      0.0131
  513.0000      0.0130
  514.0000      0.0130
  515.0000      0.0130
  516.0000      0.0130
  517.0000      0.0129
  518.0000      0.0130
  519.0000      0.0130
  520.0000      0.0131
  521.0000      0.0130
  522.0000      0.0130
  523.0000      0.0131
  524.0000      0.0133
  525.0000      0.0134
  526.0000      0.0136
  527.0000      0.0136
  528.0000      0.0137
  529.0000      0.0136
  530.0000      0.0136
  531.0000      0.0136
  532.0000      0.0136
  533.0000      0.0135
  534.0000      0.0133
  535.0000      0.0132
  536.0000      0.0130
  537.0000      0.0128
  538.0000      0.0127
  539.0000      0.0126
  540.0000      0.0125
  541.0000      0.0124
  542.0000      0.0123
  543.0000      0.0122
  544.0000      0.0122
  545.0000      0.0121
  546.0000      0.0120
  547.0000      0.0120
  548.0000      0.0119
  549.0000      0.0119
  550.0000      0.0118
  551.0000      0.0117
  552.0000      0.0116
  553.0000      0.0115
  554.0000      0.0115
  555.0000      0.0113
  556.0000      0.0112
  557.0000      0.0108
  558.0000      0.0107
  559.0000      0.0106
  560.0000      0.0104
  561.0000      0.0103
  562.0000      0.0103
  563.0000      0.0102
  564.0000      0.0102
  565.0000      0.0102
  566.0000      0.0101
  567.0000      0.0100
  568.0000      0.0098
  569.0000      0.0098
  570.0000      0.0097
  571.0000      0.0097
  572.0000      0.0097
  573.0000      0.0096
  574.0000      0.0095
  575.0000      0.0094
  576.0000      0.0093
  577.0000      0.0093
  578.0000      0.0092
  579.0000      0.0091
  580.0000      0.0090
  581.0000      0.0089
  582.0000      0.0086
  583.0000      0.0083
  584.0000      0.0083
  585.0000      0.0083
  586.0000      0.0083
  587.0000      0.0082
  588.0000      0.0082
  589.0000      0.0081
  590.0000      0.0081
  591.0000      0.0081
  592.0000      0.0081
  593.0000      0.0081
  594.0000      0.0081
  595.0000      0.0081
  596.0000      0.0080
  597.0000      0.0079
  598.0000      0.0079
  599.0000      0.0079
  600.0000      0.0079
  601.0000      0.0078
  602.0000      0.0078
  603.0000      0.0078
  604.0000      0.0077
  605.0000      0.0077
  606.0000      0.0076
  607.0000      0.0075
  608.0000      0.0073
  609.0000      0.0073
  610.0000      0.0072
  611.0000      0.0072
  612.0000      0.0072
  613.0000      0.0072
  614.0000      0.0072
  615.0000      0.0073
  616.0000      0.0073
  617.0000      0.0073
  618.0000      0.0074
  619.0000      0.0074
  620.0000      0.0075
  621.0000      0.0075
  622.0000      0.0075
  623.0000      0.0075
  624.0000      0.0075
  625.0000      0.0077
  626.0000      0.0077
  627.0000      0.0078
  628.0000      0.0079
  629.0000      0.0079
  630.0000      0.0079
  631.0000      0.0079
  632.0000      0.0079
  633.0000      0.0079
  634.0000      0.0079
  635.0000      0.0079
  636.0000      0.0080
  637.0000      0.0079
  638.0000      0.0079
  639.0000      0.0080
  640.0000      0.0079
  641.0000      0.0079
  642.0000      0.0079
  643.0000      0.0079
  644.0000      0.0079
  645.0000      0.0079
  646.0000      0.0080
  647.0000      0.0079
  648.0000      0.0079
  649.0000      0.0078
  650.0000      0.0078
  651.0000      0.0078
  652.0000      0.0078
  653.0000      0.0079
  654.0000      0.0079
  655.0000      0.0079
  656.0000      0.0079
  657.0000      0.0079
  658.0000      0.0079
  659.0000      0.0078
  660.0000      0.0078
  661.0000      0.0079
  662.0000      0.0079
  663.0000      0.0080
  664.0000      0.0081
  665.0000      0.0082
  666.0000      0.0083
  667.0000      0.0083
  668.0000      0.0085
  669.0000      0.0086
  670.0000      0.0087
  671.0000      0.0088
  672.0000      0.0089
  673.0000      0.0090
  674.0000      0.0092
  675.0000      0.0094
  676.0000      0.0096
  677.0000      0.0097
  678.0000      0.0099
  679.0000      0.0101
  680.0000      0.0104
  681.0000      0.0105
  682.0000      0.0106
  683.0000      0.0106
  684.0000      0.0106
  685.0000      0.0106
  686.0000      0.0105
  687.0000      0.0104
  688.0000      0.0104
  689.0000      0.0104
  690.0000      0.0102
  691.0000      0.0102
  692.0000      0.0101
  693.0000      0.0100
  694.0000      0.0099
  695.0000      0.0098
  696.0000      0.0096
  697.0000      0.0094
  698.0000      0.0092
  699.0000      0.0091
  700.0000      0.0090
  701.0000      0.0088
  702.0000      0.0087
  703.0000      0.0087
  704.0000      0.0086
  705.0000      0.0085
  706.0000      0.0085
  707.0000      0.0085
  708.0000      0.0084
  709.0000      0.0084
  710.0000      0.0085
  711.0000      0.0085
  712.0000      0.0085
  713.0000      0.0085
  714.0000      0.0085
  715.0000      0.0085
  716.0000      0.0084
  717.0000      0.0084
  718.0000      0.0084
  719.0000      0.0083
  720.0000      0.0083
  721.0000      0.0083
  722.0000      0.0083
  723.0000      0.0083
  724.0000      0.0083
  725.0000      0.0083
  726.0000      0.0082
  727.0000      0.0081
  728.0000      0.0081
  729.0000      0.0079
  730.0000      0.0078
  731.0000      0.0077
  732.0000      0.0075
  733.0000      0.0073
  734.0000      0.0072
  735.0000      0.0071
  736.0000      0.0081
  737.0000      0.0082
  738.0000      0.0082
  739.0000      0.0082
  740.0000      0.0083
  741.0000      0.0083
  742.0000      0.0083
  743.0000      0.0083
  744.0000      0.0084
  745.0000      0.0084
  746.0000      0.0085
  747.0000      0.0085
  748.0000      0.0085
  749.0000      0.0084
  750.0000      0.0084
  751.0000      0.0083
  752.0000      0.0082
  753.0000      0.0081
  754.0000      0.0082
  755.0000      0.0081
  756.0000      0.0081
  757.0000      0.0080
  758.0000      0.0079
  759.0000      0.0079
  760.0000      0.0078
  761.0000      0.0078
  762.0000      0.0078
  763.0000      0.0078
  764.0000      0.0079
  765.0000      0.0080
  766.0000      0.0080
  767.0000      0.0081
  768.0000      0.0082
  769.0000      0.0083
  770.0000      0.0083
  771.0000      0.0083
  772.0000      0.0083
  773.0000      0.0083
  774.0000      0.0082
  775.0000      0.0082
  776.0000      0.0081
  777.0000      0.0081
  778.0000      0.0080
  779.0000      0.0080
  780.0000      0.0078
  781.0000      0.0078
  782.0000      0.0077
  783.0000      0.0076
  784.0000      0.0076
  785.0000      0.0076
  786.0000      0.0076
  787.0000      0.0074
  788.0000      0.0073
  789.0000      0.0073
  790.0000      0.0071
  791.0000      0.0070
  792.0000      0.0069
  793.0000      0.0068
  794.0000      0.0067
  795.0000      0.0067
  796.0000      0.0066
  797.0000      0.0066
  798.0000      0.0066
  799.0000      0.0066
  800.0000      0.0065
