Start Wavelength:    200.0000
End Wavelength:    800.0000
Read Mode:  ABS
Read Average:      0.1000
Nanometer Interval:      1.0000
Time:      0.0000

  200.0000      0.6792
  201.0000      0.6124
  202.0000      0.5783
  203.0000      0.5524
  204.0000      0.5233
  205.0000      0.5002
  206.0000      0.4850
  207.0000      0.4687
  208.0000      0.4546
  209.0000      0.4421
  210.0000      0.4310
  211.0000      0.4208
  212.0000      0.4124
  213.0000      0.4041
  214.0000      0.3955
  215.0000      0.3877
  216.0000      0.3806
  217.0000      0.3737
  218.0000      0.3688
  219.0000      0.3628
  220.0000      0.3584
  221.0000      0.3524
  222.0000      0.3470
  223.0000      0.3424
  224.0000      0.3364
  225.0000      0.3307
  226.0000      0.3257
  227.0000      0.3202
  228.0000      0.3149
  229.0000      0.3092
  230.0000      0.3047
  231.0000      0.2994
  232.0000      0.2948
  233.0000      0.2905
  234.0000      0.2858
  235.0000      0.2815
  236.0000      0.2776
  237.0000      0.2731
  238.0000      0.2699
  239.0000      0.2660
  240.0000      0.2632
  241.0000      0.2599
  242.0000      0.2574
  243.0000      0.2552
  244.0000      0.2528
  245.0000      0.2494
  246.0000      0.2466
  247.0000      0.2438
  248.0000      0.2408
  249.0000      0.2384
  250.0000      0.2372
  251.0000      0.2344
  252.0000      0.2324
  253.0000      0.2306
  254.0000      0.2274
  255.0000      0.2249
  256.0000      0.2233
  257.0000      0.2219
  258.0000      0.2199
  259.0000      0.2182
  260.0000      0.2170
  261.0000      0.2152
  262.0000      0.2135
  263.0000      0.2123
  264.0000      0.2099
  265.0000      0.2090
  266.0000      0.2065
  267.0000      0.2046
  268.0000      0.2029
  269.0000      0.2018
  270.0000      0.1995
  271.0000      0.1974
  272.0000      0.1952
  273.0000      0.1939
  274.0000      0.1918
  275.0000      0.1896
  276.0000      0.1877
  277.0000      0.1861
  278.0000      0.1839
  279.0000      0.1817
  280.0000      0.1808
  281.0000      0.1784
  282.0000      0.1753
  283.0000      0.1737
  284.0000      0.1721
  285.0000      0.1690
  286.0000      0.1674
  287.0000      0.1651
  288.0000      0.1620
  289.0000      0.1603
  290.0000      0.1576
  291.0000      0.1549
  292.0000      0.1517
  293.0000      0.1500
  294.0000      0.1475
  295.0000      0.1448
  296.0000      0.1434
  297.0000      0.1410
  298.0000      0.1386
  299.0000      0.1364
  300.0000      0.1344
  301.0000      0.1328
  302.0000      0.1309
  303.0000      0.1294
  304.0000      0.1280
  305.0000      0.1264
  306.0000      0.1248
  307.0000      0.1232
  308.0000      0.1216
  309.0000      0.1205
  310.0000      0.1188
  311.0000      0.1168
  312.0000      0.1160
  313.0000      0.1144
  314.0000      0.1127
  315.0000      0.1120
  316.0000      0.1110
  317.0000      0.1096
  318.0000      0.1086
  319.0000      0.1077
  320.0000      0.1069
  321.0000      0.1059
  322.0000      0.1039
  323.0000      0.1025
  324.0000      0.1018
  325.0000      0.1009
  326.0000      0.0992
  327.0000      0.0989
  328.0000      0.0977
  329.0000      0.0970
  330.0000      0.0957
  331.0000      0.0959
  332.0000      0.0948
  333.0000      0.0942
  334.0000      0.0937
  335.0000      0.0935
  336.0000      0.0932
  337.0000      0.0919
  338.0000      0.0924
  339.0000      0.0918
  340.0000      0.0908
  341.0000      0.0906
  342.0000      0.0898
  343.0000      0.0896
  344.0000      0.0893
  345.0000      0.0893
  346.0000      0.0890
  347.0000      0.0892
  348.0000      0.0893
  349.0000      0.0891
  350.0000      0.0887
  351.0000      0.0890
  352.0000      0.0886
  353.0000      0.0876
  354.0000      0.0877
  355.0000      0.0881
  356.0000      0.0875
  357.0000      0.0844
  358.0000      0.0827
  359.0000      0.0820
  360.0000      0.0799
  361.0000      0.0807
  362.0000      0.0822
  363.0000      0.0792
  364.0000      0.0786
  365.0000      0.0793
  366.0000      0.0777
  367.0000      0.0760
  368.0000      0.0764
  369.0000      0.0765
  370.0000      0.0743
  371.0000      0.0742
  372.0000      0.0744
  373.0000      0.0742
  374.0000      0.0721
  375.0000      0.0728
  376.0000      0.0727
  377.0000      0.0716
  378.0000      0.0720
  379.0000      0.0717
  380.0000      0.0701
  381.0000      0.0710
  382.0000      0.0705
  383.0000      0.0697
  384.0000      0.0702
  385.0000      0.0701
  386.0000      0.0686
  387.0000      0.0681
  388.0000      0.0685
  389.0000      0.0679
  390.0000      0.0674
  391.0000      0.0676
  392.0000      0.0675
  393.0000      0.0663
  394.0000      0.0660
  395.0000      0.0663
  396.0000      0.0663
  397.0000      0.0653
  398.0000      0.0653
  399.0000      0.0652
  400.0000      0.0650
  401.0000      0.0646
  402.0000      0.0643
  403.0000      0.0642
  404.0000      0.0640
  405.0000      0.0638
  406.0000      0.0631
  407.0000      0.0635
  408.0000      0.0633
  409.0000      0.0630
  410.0000      0.0628
  411.0000      0.0641
  412.0000      0.0640
  413.0000      0.0638
  414.0000      0.0641
  415.0000      0.0649
  416.0000      0.0619
  417.0000      0.0619
  418.0000      0.0617
  419.0000      0.0616
  420.0000      0.0615
  421.0000      0.0614
  422.0000      0.0613
  423.0000      0.0612
  424.0000      0.0612
  425.0000      0.0610
  426.0000      0.0610
  427.0000      0.0611
  428.0000      0.0614
  429.0000      0.0615
  430.0000      0.0617
  431.0000      0.0619
  432.0000      0.0621
  433.0000      0.0626
  434.0000      0.0630
  435.0000      0.0634
  436.0000      0.0634
  437.0000      0.0633
  438.0000      0.0631
  439.0000      0.0625
  440.0000      0.0620
  441.0000      0.0613
  442.0000      0.0605
  443.0000      0.0597
  444.0000      0.0590
  445.0000      0.0582
  446.0000      0.0571
  447.0000      0.0561
  448.0000      0.0552
  449.0000      0.0544
  450.0000      0.0539
  451.0000      0.0535
  452.0000      0.0531
  453.0000      0.0527
  454.0000      0.0524
  455.0000      0.0522
  456.0000      0.0520
  457.0000      0.0518
  458.0000      0.0515
  459.0000      0.0512
  460.0000      0.0510
  461.0000      0.0506
  462.0000      0.0502
  463.0000      0.0503
  464.0000      0.0501
  465.0000      0.0500
  466.0000      0.0497
  467.0000      0.0496
  468.0000      0.0493
  469.0000      0.0491
  470.0000      0.0490
  471.0000      0.0489
  472.0000      0.0489
  473.0000      0.0490
  474.0000      0.0491
  475.0000      0.0491
  476.0000      0.0490
  477.0000      0.0488
  478.0000      0.0486
  479.0000      0.0485
  480.0000      0.0484
  481.0000      0.0483
  482.0000      0.0483
  483.0000      0.0483
  484.0000      0.0481
  485.0000      0.0478
  486.0000      0.0476
  487.0000      0.0474
  488.0000      0.0471
  489.0000      0.0468
  490.0000      0.0464
  491.0000      0.0461
  492.0000      0.0457
  493.0000      0.0452
  494.0000      0.0448
  495.0000      0.0443
  496.0000      0.0439
  497.0000      0.0435
  498.0000      0.0432
  499.0000      0.0431
  500.0000      0.0431
  501.0000      0.0436
  502.0000      0.0444
  503.0000      0.0453
  504.0000      0.0458
  505.0000      0.0461
  506.0000      0.0464
  507.0000      0.0465
  508.0000      0.0464
  509.0000      0.0465
  510.0000      0.0466
  511.0000      0.0466
  512.0000      0.0468
  513.0000      0.0470
  514.0000      0.0472
  515.0000      0.0473
  516.0000      0.0473
  517.0000      0.0472
  518.0000      0.0470
  519.0000      0.0466
  520.0000      0.0460
  521.0000      0.0455
  522.0000      0.0450
  523.0000      0.0444
  524.0000      0.0432
  525.0000      0.0421
  526.0000      0.0418
  527.0000      0.0416
  528.0000      0.0415
  529.0000      0.0413
  530.0000      0.0412
  531.0000      0.0412
  532.0000      0.0410
  533.0000      0.0408
  534.0000      0.0407
  535.0000      0.0407
  536.0000      0.0407
  537.0000      0.0405
  538.0000      0.0402
  539.0000      0.0401
  540.0000      0.0400
  541.0000      0.0399
  542.0000      0.0398
  543.0000      0.0395
  544.0000      0.0393
  545.0000      0.0390
  546.0000      0.0386
  547.0000      0.0383
  548.0000      0.0380
  549.0000      0.0375
  550.0000      0.0371
  551.0000      0.0368
  552.0000      0.0366
  553.0000      0.0365
  554.0000      0.0365
  555.0000      0.0366
  556.0000      0.0366
  557.0000      0.0347
  558.0000      0.0344
  559.0000      0.0344
  560.0000      0.0344
  561.0000      0.0344
  562.0000      0.0343
  563.0000      0.0342
  564.0000      0.0343
  565.0000      0.0341
  566.0000      0.0340
  567.0000      0.0339
  568.0000      0.0338
  569.0000      0.0336
  570.0000      0.0334
  571.0000      0.0332
  572.0000      0.0332
  573.0000      0.0333
  574.0000      0.0334
  575.0000      0.0335
  576.0000      0.0336
  577.0000      0.0336
  578.0000      0.0336
  579.0000      0.0336
  580.0000      0.0336
  581.0000      0.0335
  582.0000      0.0335
  583.0000      0.0333
  584.0000      0.0331
  585.0000      0.0326
  586.0000      0.0324
  587.0000      0.0324
  588.0000      0.0325
  589.0000      0.0325
  590.0000      0.0326
  591.0000      0.0327
  592.0000      0.0331
  593.0000      0.0335
  594.0000      0.0339
  595.0000      0.0343
  596.0000      0.0345
  597.0000      0.0345
  598.0000      0.0344
  599.0000      0.0342
  600.0000      0.0340
  601.0000      0.0338
  602.0000      0.0337
  603.0000      0.0336
  604.0000      0.0335
  605.0000      0.0334
  606.0000      0.0332
  607.0000      0.0332
  608.0000      0.0330
  609.0000      0.0328
  610.0000      0.0326
  611.0000      0.0324
  612.0000      0.0322
  613.0000      0.0320
  614.0000      0.0318
  615.0000      0.0317
  616.0000      0.0316
  617.0000      0.0316
  618.0000      0.0316
  619.0000      0.0316
  620.0000      0.0315
  621.0000      0.0315
  622.0000      0.0316
  623.0000      0.0316
  624.0000      0.0317
  625.0000      0.0318
  626.0000      0.0319
  627.0000      0.0319
  628.0000      0.0320
  629.0000      0.0322
  630.0000      0.0323
  631.0000      0.0327
  632.0000      0.0330
  633.0000      0.0332
  634.0000      0.0335
  635.0000      0.0337
  636.0000      0.0339
  637.0000      0.0341
  638.0000      0.0343
  639.0000      0.0346
  640.0000      0.0349
  641.0000      0.0350
  642.0000      0.0351
  643.0000      0.0350
  644.0000      0.0351
  645.0000      0.0352
  646.0000      0.0353
  647.0000      0.0354
  648.0000      0.0353
  649.0000      0.0352
  650.0000      0.0351
  651.0000      0.0351
  652.0000      0.0349
  653.0000      0.0348
  654.0000      0.0347
  655.0000      0.0345
  656.0000      0.0344
  657.0000      0.0344
  658.0000      0.0342
  659.0000      0.0339
  660.0000      0.0337
  661.0000      0.0334
  662.0000      0.0332
  663.0000      0.0330
  664.0000      0.0331
  665.0000      0.0332
  666.0000      0.0333
  667.0000      0.0334
  668.0000      0.0334
  669.0000      0.0333
  670.0000      0.0334
  671.0000      0.0334
  672.0000      0.0334
  673.0000      0.0333
  674.0000      0.0333
  675.0000      0.0330
  676.0000      0.0326
  677.0000      0.0322
  678.0000      0.0321
  679.0000      0.0321
  680.0000      0.0325
  681.0000      0.0329
  682.0000      0.0335
  683.0000      0.0339
  684.0000      0.0343
  685.0000      0.0347
  686.0000      0.0350
  687.0000      0.0350
  688.0000      0.0350
  689.0000      0.0350
  690.0000      0.0351
  691.0000      0.0353
  692.0000      0.0354
  693.0000      0.0354
  694.0000      0.0353
  695.0000      0.0352
  696.0000      0.0349
  697.0000      0.0342
  698.0000      0.0334
  699.0000      0.0322
  700.0000      0.0312
  701.0000      0.0306
  702.0000      0.0299
  703.0000      0.0295
  704.0000      0.0291
  705.0000      0.0289
  706.0000      0.0286
  707.0000      0.0283
  708.0000      0.0282
  709.0000      0.0280
  710.0000      0.0280
  711.0000      0.0278
  712.0000      0.0277
  713.0000      0.0277
  714.0000      0.0278
  715.0000      0.0279
  716.0000      0.0280
  717.0000      0.0283
  718.0000      0.0286
  719.0000      0.0288
  720.0000      0.0290
  721.0000      0.0291
  722.0000      0.0293
  723.0000      0.0294
  724.0000      0.0295
  725.0000      0.0294
  726.0000      0.0294
  727.0000      0.0292
  728.0000      0.0291
  729.0000      0.0289
  730.0000      0.0287
  731.0000      0.0286
  732.0000      0.0284
  733.0000      0.0282
  734.0000      0.0278
  735.0000      0.0273
  736.0000      0.0277
  737.0000      0.0277
  738.0000      0.0277
  739.0000      0.0277
  740.0000      0.0278
  741.0000      0.0279
  742.0000      0.0278
  743.0000      0.0279
  744.0000      0.0279
  745.0000      0.0280
  746.0000      0.0282
  747.0000      0.0282
  748.0000      0.0283
  749.0000      0.0284
  750.0000      0.0283
  751.0000      0.0283
  752.0000      0.0284
  753.0000      0.0284
  754.0000      0.0284
  755.0000      0.0283
  756.0000      0.0282
  757.0000      0.0281
  758.0000      0.0282
  759.0000      0.0282
  760.0000      0.0283
  761.0000      0.0284
  762.0000      0.0285
  763.0000      0.0285
  764.0000      0.0287
  765.0000      0.0287
  766.0000      0.0287
  767.0000      0.0289
  768.0000      0.0290
  769.0000      0.0290
  770.0000      0.0290
  771.0000      0.0292
  772.0000      0.0291
  773.0000      0.0290
  774.0000      0.0290
  775.0000      0.0288
  776.0000      0.0285
  777.0000      0.0282
  778.0000      0.0279
  779.0000      0.0276
  780.0000      0.0272
  781.0000      0.0267
  782.0000      0.0262
  783.0000      0.0259
  784.0000      0.0256
  785.0000      0.0253
  786.0000      0.0252
  787.0000      0.0251
  788.0000      0.0251
  789.0000      0.0250
  790.0000      0.0249
  791.0000      0.0249
  792.0000      0.0248
  793.0000      0.0247
  794.0000      0.0246
  795.0000      0.0244
  796.0000      0.0243
  797.0000      0.0241
  798.0000      0.0240
  799.0000      0.0239
  800.0000      0.0236
