Start Wavelength:    200.0000
End Wavelength:    800.0000
Read Mode:  ABS
Read Average:      0.1000
Nanometer Interval:      1.0000
Time:      0.0000

  200.0000      3.5072
  201.0000      2.6215
  202.0000      2.6615
  203.0000      2.4781
  204.0000      2.2628
  205.0000      2.3484
  206.0000      2.2151
  207.0000      2.1061
  208.0000      2.0731
  209.0000      2.0549
  210.0000      1.9706
  211.0000      1.9335
  212.0000      1.9146
  213.0000      1.8562
  214.0000      1.8261
  215.0000      1.7928
  216.0000      1.7605
  217.0000      1.7282
  218.0000      1.7028
  219.0000      1.6704
  220.0000      1.6452
  221.0000      1.6178
  222.0000      1.5979
  223.0000      1.5706
  224.0000      1.5464
  225.0000      1.5304
  226.0000      1.5051
  227.0000      1.4783
  228.0000      1.4593
  229.0000      1.4397
  230.0000      1.4139
  231.0000      1.3940
  232.0000      1.3772
  233.0000      1.3525
  234.0000      1.3292
  235.0000      1.3107
  236.0000      1.2956
  237.0000      1.2767
  238.0000      1.2627
  239.0000      1.2501
  240.0000      1.2361
  241.0000      1.2232
  242.0000      1.2169
  243.0000      1.2056
  244.0000      1.1985
  245.0000      1.1904
  246.0000      1.1859
  247.0000      1.1774
  248.0000      1.1708
  249.0000      1.1669
  250.0000      1.1602
  251.0000      1.1527
  252.0000      1.1510
  253.0000      1.1458
  254.0000      1.1386
  255.0000      1.1325
  256.0000      1.1308
  257.0000      1.1251
  258.0000      1.1172
  259.0000      1.1142
  260.0000      1.1087
  261.0000      1.0993
  262.0000      1.0950
  263.0000      1.0919
  264.0000      1.0813
  265.0000      1.0750
  266.0000      1.0700
  267.0000      1.0597
  268.0000      1.0500
  269.0000      1.0434
  270.0000      1.0353
  271.0000      1.0262
  272.0000      1.0191
  273.0000      1.0095
  274.0000      0.9994
  275.0000      0.9901
  276.0000      0.9820
  277.0000      0.9730
  278.0000      0.9611
  279.0000      0.9537
  280.0000      0.9453
  281.0000      0.9337
  282.0000      0.9218
  283.0000      0.9126
  284.0000      0.9020
  285.0000      0.8921
  286.0000      0.8806
  287.0000      0.8708
  288.0000      0.8590
  289.0000      0.8472
  290.0000      0.8381
  291.0000      0.8281
  292.0000      0.8146
  293.0000      0.8073
  294.0000      0.7978
  295.0000      0.7854
  296.0000      0.7769
  297.0000      0.7695
  298.0000      0.7592
  299.0000      0.7491
  300.0000      0.7431
  301.0000      0.7364
  302.0000      0.7280
  303.0000      0.7215
  304.0000      0.7145
  305.0000      0.7081
  306.0000      0.6984
  307.0000      0.6941
  308.0000      0.6882
  309.0000      0.6824
  310.0000      0.6769
  311.0000      0.6715
  312.0000      0.6688
  313.0000      0.6614
  314.0000      0.6583
  315.0000      0.6527
  316.0000      0.6459
  317.0000      0.6420
  318.0000      0.6385
  319.0000      0.6343
  320.0000      0.6295
  321.0000      0.6295
  322.0000      0.6191
  323.0000      0.6150
  324.0000      0.6099
  325.0000      0.6067
  326.0000      0.6032
  327.0000      0.6000
  328.0000      0.5933
  329.0000      0.5915
  330.0000      0.5883
  331.0000      0.5844
  332.0000      0.5817
  333.0000      0.5790
  334.0000      0.5743
  335.0000      0.5715
  336.0000      0.5694
  337.0000      0.5657
  338.0000      0.5628
  339.0000      0.5597
  340.0000      0.5565
  341.0000      0.5528
  342.0000      0.5500
  343.0000      0.5480
  344.0000      0.5449
  345.0000      0.5422
  346.0000      0.5403
  347.0000      0.5369
  348.0000      0.5342
  349.0000      0.5320
  350.0000      0.5290
  351.0000      0.5263
  352.0000      0.5247
  353.0000      0.5219
  354.0000      0.5199
  355.0000      0.5178
  356.0000      0.5173
  357.0000      0.5238
  358.0000      0.5170
  359.0000      0.5158
  360.0000      0.5169
  361.0000      0.5120
  362.0000      0.5125
  363.0000      0.5088
  364.0000      0.5066
  365.0000      0.5035
  366.0000      0.5022
  367.0000      0.5002
  368.0000      0.4976
  369.0000      0.4974
  370.0000      0.4947
  371.0000      0.4912
  372.0000      0.4895
  373.0000      0.4903
  374.0000      0.4868
  375.0000      0.4824
  376.0000      0.4850
  377.0000      0.4819
  378.0000      0.4788
  379.0000      0.4779
  380.0000      0.4772
  381.0000      0.4739
  382.0000      0.4711
  383.0000      0.4700
  384.0000      0.4698
  385.0000      0.4668
  386.0000      0.4679
  387.0000      0.4652
  388.0000      0.4623
  389.0000      0.4612
  390.0000      0.4610
  391.0000      0.4592
  392.0000      0.4564
  393.0000      0.4551
  394.0000      0.4537
  395.0000      0.4519
  396.0000      0.4513
  397.0000      0.4504
  398.0000      0.4481
  399.0000      0.4463
  400.0000      0.4454
  401.0000      0.4442
  402.0000      0.4419
  403.0000      0.4422
  404.0000      0.4409
  405.0000      0.4381
  406.0000      0.4382
  407.0000      0.4380
  408.0000      0.4375
  409.0000      0.4352
  410.0000      0.4352
  411.0000      0.4346
  412.0000      0.4331
  413.0000      0.4326
  414.0000      0.4316
  415.0000      0.4310
  416.0000      0.4298
  417.0000      0.4285
  418.0000      0.4278
  419.0000      0.4268
  420.0000      0.4258
  421.0000      0.4248
  422.0000      0.4240
  423.0000      0.4232
  424.0000      0.4219
  425.0000      0.4211
  426.0000      0.4201
  427.0000      0.4192
  428.0000      0.4186
  429.0000      0.4178
  430.0000      0.4172
  431.0000      0.4164
  432.0000      0.4159
  433.0000      0.4153
  434.0000      0.4147
  435.0000      0.4141
  436.0000      0.4133
  437.0000      0.4126
  438.0000      0.4117
  439.0000      0.4106
  440.0000      0.4096
  441.0000      0.4086
  442.0000      0.4074
  443.0000      0.4059
  444.0000      0.4043
  445.0000      0.4025
  446.0000      0.4005
  447.0000      0.3986
  448.0000      0.3961
  449.0000      0.3942
  450.0000      0.3923
  451.0000      0.3904
  452.0000      0.3883
  453.0000      0.3867
  454.0000      0.3847
  455.0000      0.3829
  456.0000      0.3813
  457.0000      0.3800
  458.0000      0.3784
  459.0000      0.3771
  460.0000      0.3759
  461.0000      0.3749
  462.0000      0.3739
  463.0000      0.3732
  464.0000      0.3723
  465.0000      0.3717
  466.0000      0.3712
  467.0000      0.3707
  468.0000      0.3698
  469.0000      0.3691
  470.0000      0.3682
  471.0000      0.3672
  472.0000      0.3661
  473.0000      0.3654
  474.0000      0.3645
  475.0000      0.3638
  476.0000      0.3629
  477.0000      0.3620
  478.0000      0.3611
  479.0000      0.3602
  480.0000      0.3591
  481.0000      0.3582
  482.0000      0.3571
  483.0000      0.3561
  484.0000      0.3550
  485.0000      0.3541
  486.0000      0.3529
  487.0000      0.3519
  488.0000      0.3505
  489.0000      0.3496
  490.0000      0.3485
  491.0000      0.3476
  492.0000      0.3465
  493.0000      0.3454
  494.0000      0.3445
  495.0000      0.3435
  496.0000      0.3425
  497.0000      0.3413
  498.0000      0.3402
  499.0000      0.3390
  500.0000      0.3379
  501.0000      0.3365
  502.0000      0.3352
  503.0000      0.3337
  504.0000      0.3321
  505.0000      0.3308
  506.0000      0.3295
  507.0000      0.3286
  508.0000      0.3274
  509.0000      0.3266
  510.0000      0.3257
  511.0000      0.3250
  512.0000      0.3241
  513.0000      0.3231
  514.0000      0.3222
  515.0000      0.3208
  516.0000      0.3198
  517.0000      0.3187
  518.0000      0.3176
  519.0000      0.3166
  520.0000      0.3155
  521.0000      0.3145
  522.0000      0.3135
  523.0000      0.3126
  524.0000      0.3116
  525.0000      0.3105
  526.0000      0.3095
  527.0000      0.3081
  528.0000      0.3072
  529.0000      0.3061
  530.0000      0.3051
  531.0000      0.3041
  532.0000      0.3030
  533.0000      0.3022
  534.0000      0.3014
  535.0000      0.3007
  536.0000      0.2998
  537.0000      0.2989
  538.0000      0.2981
  539.0000      0.2972
  540.0000      0.2962
  541.0000      0.2952
  542.0000      0.2940
  543.0000      0.2928
  544.0000      0.2913
  545.0000      0.2897
  546.0000      0.2882
  547.0000      0.2866
  548.0000      0.2850
  549.0000      0.2836
  550.0000      0.2822
  551.0000      0.2812
  552.0000      0.2800
  553.0000      0.2788
  554.0000      0.2775
  555.0000      0.2761
  556.0000      0.2750
  557.0000      0.2732
  558.0000      0.2728
  559.0000      0.2723
  560.0000      0.2716
  561.0000      0.2708
  562.0000      0.2701
  563.0000      0.2696
  564.0000      0.2691
  565.0000      0.2687
  566.0000      0.2683
  567.0000      0.2679
  568.0000      0.2675
  569.0000      0.2671
  570.0000      0.2667
  571.0000      0.2663
  572.0000      0.2658
  573.0000      0.2652
  574.0000      0.2647
  575.0000      0.2639
  576.0000      0.2631
  577.0000      0.2625
  578.0000      0.2619
  579.0000      0.2611
  580.0000      0.2604
  581.0000      0.2598
  582.0000      0.2591
  583.0000      0.2586
  584.0000      0.2583
  585.0000      0.2578
  586.0000      0.2573
  587.0000      0.2568
  588.0000      0.2563
  589.0000      0.2558
  590.0000      0.2557
  591.0000      0.2556
  592.0000      0.2555
  593.0000      0.2556
  594.0000      0.2555
  595.0000      0.2553
  596.0000      0.2549
  597.0000      0.2547
  598.0000      0.2543
  599.0000      0.2539
  600.0000      0.2534
  601.0000      0.2531
  602.0000      0.2528
  603.0000      0.2528
  604.0000      0.2529
  605.0000      0.2531
  606.0000      0.2533
  607.0000      0.2533
  608.0000      0.2534
  609.0000      0.2533
  610.0000      0.2532
  611.0000      0.2532
  612.0000      0.2531
  613.0000      0.2531
  614.0000      0.2533
  615.0000      0.2532
  616.0000      0.2530
  617.0000      0.2531
  618.0000      0.2528
  619.0000      0.2525
  620.0000      0.2525
  621.0000      0.2525
  622.0000      0.2525
  623.0000      0.2525
  624.0000      0.2524
  625.0000      0.2523
  626.0000      0.2521
  627.0000      0.2518
  628.0000      0.2514
  629.0000      0.2511
  630.0000      0.2508
  631.0000      0.2503
  632.0000      0.2497
  633.0000      0.2489
  634.0000      0.2482
  635.0000      0.2473
  636.0000      0.2464
  637.0000      0.2454
  638.0000      0.2446
  639.0000      0.2439
  640.0000      0.2430
  641.0000      0.2423
  642.0000      0.2416
  643.0000      0.2410
  644.0000      0.2405
  645.0000      0.2401
  646.0000      0.2397
  647.0000      0.2392
  648.0000      0.2388
  649.0000      0.2384
  650.0000      0.2380
  651.0000      0.2376
  652.0000      0.2371
  653.0000      0.2366
  654.0000      0.2361
  655.0000      0.2356
  656.0000      0.2352
  657.0000      0.2350
  658.0000      0.2345
  659.0000      0.2344
  660.0000      0.2342
  661.0000      0.2340
  662.0000      0.2342
  663.0000      0.2343
  664.0000      0.2344
  665.0000      0.2347
  666.0000      0.2349
  667.0000      0.2353
  668.0000      0.2358
  669.0000      0.2362
  670.0000      0.2366
  671.0000      0.2368
  672.0000      0.2371
  673.0000      0.2372
  674.0000      0.2374
  675.0000      0.2376
  676.0000      0.2377
  677.0000      0.2377
  678.0000      0.2378
  679.0000      0.2378
  680.0000      0.2376
  681.0000      0.2375
  682.0000      0.2372
  683.0000      0.2366
  684.0000      0.2358
  685.0000      0.2345
  686.0000      0.2330
  687.0000      0.2313
  688.0000      0.2293
  689.0000      0.2275
  690.0000      0.2258
  691.0000      0.2240
  692.0000      0.2223
  693.0000      0.2205
  694.0000      0.2189
  695.0000      0.2173
  696.0000      0.2158
  697.0000      0.2145
  698.0000      0.2134
  699.0000      0.2123
  700.0000      0.2114
  701.0000      0.2104
  702.0000      0.2095
  703.0000      0.2086
  704.0000      0.2078
  705.0000      0.2071
  706.0000      0.2064
  707.0000      0.2057
  708.0000      0.2049
  709.0000      0.2042
  710.0000      0.2035
  711.0000      0.2028
  712.0000      0.2021
  713.0000      0.2014
  714.0000      0.2007
  715.0000      0.1999
  716.0000      0.1992
  717.0000      0.1987
  718.0000      0.1979
  719.0000      0.1974
  720.0000      0.1970
  721.0000      0.1967
  722.0000      0.1963
  723.0000      0.1960
  724.0000      0.1957
  725.0000      0.1952
  726.0000      0.1948
  727.0000      0.1945
  728.0000      0.1941
  729.0000      0.1935
  730.0000      0.1928
  731.0000      0.1923
  732.0000      0.1916
  733.0000      0.1912
  734.0000      0.1907
  735.0000      0.1902
  736.0000      0.1888
  737.0000      0.1885
  738.0000      0.1882
  739.0000      0.1880
  740.0000      0.1877
  741.0000      0.1877
  742.0000      0.1876
  743.0000      0.1876
  744.0000      0.1874
  745.0000      0.1875
  746.0000      0.1875
  747.0000      0.1874
  748.0000      0.1871
  749.0000      0.1869
  750.0000      0.1867
  751.0000      0.1866
  752.0000      0.1865
  753.0000      0.1864
  754.0000      0.1863
  755.0000      0.1861
  756.0000      0.1859
  757.0000      0.1857
  758.0000      0.1856
  759.0000      0.1854
  760.0000      0.1853
  761.0000      0.1851
  762.0000      0.1849
  763.0000      0.1847
  764.0000      0.1846
  765.0000      0.1843
  766.0000      0.1841
  767.0000      0.1836
  768.0000      0.1832
  769.0000      0.1829
  770.0000      0.1824
  771.0000      0.1821
  772.0000      0.1816
  773.0000      0.1810
  774.0000      0.1806
  775.0000      0.1802
  776.0000      0.1798
  777.0000      0.1793
  778.0000      0.1789
  779.0000      0.1788
  780.0000      0.1785
  781.0000      0.1783
  782.0000      0.1780
  783.0000      0.1779
  784.0000      0.1777
  785.0000      0.1775
  786.0000      0.1772
  787.0000      0.1770
  788.0000      0.1769
  789.0000      0.1766
  790.0000      0.1765
  791.0000      0.1763
  792.0000      0.1762
  793.0000      0.1761
  794.0000      0.1760
  795.0000      0.1758
  796.0000      0.1755
  797.0000      0.1752
  798.0000      0.1749
  799.0000      0.1747
  800.0000      0.1744
