Start Wavelength:    200.0000
End Wavelength:    800.0000
Read Mode:  ABS
Read Average:      0.1000
Nanometer Interval:      1.0000
Time:      0.0000

  200.0000      1.0602
  201.0000      0.9771
  202.0000      0.9317
  203.0000      0.8978
  204.0000      0.8625
  205.0000      0.8357
  206.0000      0.8117
  207.0000      0.7909
  208.0000      0.7708
  209.0000      0.7530
  210.0000      0.7377
  211.0000      0.7228
  212.0000      0.7087
  213.0000      0.6955
  214.0000      0.6837
  215.0000      0.6718
  216.0000      0.6621
  217.0000      0.6501
  218.0000      0.6405
  219.0000      0.6316
  220.0000      0.6221
  221.0000      0.6130
  222.0000      0.6051
  223.0000      0.5967
  224.0000      0.5895
  225.0000      0.5818
  226.0000      0.5747
  227.0000      0.5673
  228.0000      0.5611
  229.0000      0.5536
  230.0000      0.5478
  231.0000      0.5416
  232.0000      0.5361
  233.0000      0.5297
  234.0000      0.5245
  235.0000      0.5197
  236.0000      0.5144
  237.0000      0.5093
  238.0000      0.5046
  239.0000      0.5011
  240.0000      0.4971
  241.0000      0.4935
  242.0000      0.4899
  243.0000      0.4876
  244.0000      0.4846
  245.0000      0.4814
  246.0000      0.4790
  247.0000      0.4765
  248.0000      0.4742
  249.0000      0.4725
  250.0000      0.4696
  251.0000      0.4681
  252.0000      0.4654
  253.0000      0.4635
  254.0000      0.4626
  255.0000      0.4596
  256.0000      0.4582
  257.0000      0.4564
  258.0000      0.4543
  259.0000      0.4523
  260.0000      0.4501
  261.0000      0.4483
  262.0000      0.4454
  263.0000      0.4432
  264.0000      0.4412
  265.0000      0.4389
  266.0000      0.4367
  267.0000      0.4341
  268.0000      0.4305
  269.0000      0.4287
  270.0000      0.4255
  271.0000      0.4226
  272.0000      0.4196
  273.0000      0.4166
  274.0000      0.4134
  275.0000      0.4103
  276.0000      0.4068
  277.0000      0.4032
  278.0000      0.4002
  279.0000      0.3973
  280.0000      0.3938
  281.0000      0.3899
  282.0000      0.3871
  283.0000      0.3824
  284.0000      0.3788
  285.0000      0.3758
  286.0000      0.3718
  287.0000      0.3687
  288.0000      0.3644
  289.0000      0.3611
  290.0000      0.3571
  291.0000      0.3535
  292.0000      0.3500
  293.0000      0.3474
  294.0000      0.3437
  295.0000      0.3400
  296.0000      0.3361
  297.0000      0.3336
  298.0000      0.3302
  299.0000      0.3268
  300.0000      0.3242
  301.0000      0.3207
  302.0000      0.3175
  303.0000      0.3147
  304.0000      0.3108
  305.0000      0.3094
  306.0000      0.3061
  307.0000      0.3047
  308.0000      0.3021
  309.0000      0.2987
  310.0000      0.2972
  311.0000      0.2947
  312.0000      0.2919
  313.0000      0.2901
  314.0000      0.2882
  315.0000      0.2855
  316.0000      0.2847
  317.0000      0.2822
  318.0000      0.2798
  319.0000      0.2784
  320.0000      0.2762
  321.0000      0.2766
  322.0000      0.2729
  323.0000      0.2713
  324.0000      0.2695
  325.0000      0.2681
  326.0000      0.2667
  327.0000      0.2648
  328.0000      0.2639
  329.0000      0.2619
  330.0000      0.2607
  331.0000      0.2596
  332.0000      0.2579
  333.0000      0.2566
  334.0000      0.2560
  335.0000      0.2544
  336.0000      0.2535
  337.0000      0.2524
  338.0000      0.2506
  339.0000      0.2496
  340.0000      0.2489
  341.0000      0.2477
  342.0000      0.2468
  343.0000      0.2454
  344.0000      0.2440
  345.0000      0.2439
  346.0000      0.2428
  347.0000      0.2414
  348.0000      0.2402
  349.0000      0.2398
  350.0000      0.2381
  351.0000      0.2374
  352.0000      0.2366
  353.0000      0.2349
  354.0000      0.2345
  355.0000      0.2336
  356.0000      0.2332
  357.0000      0.2328
  358.0000      0.2303
  359.0000      0.2308
  360.0000      0.2295
  361.0000      0.2281
  362.0000      0.2280
  363.0000      0.2275
  364.0000      0.2251
  365.0000      0.2265
  366.0000      0.2242
  367.0000      0.2250
  368.0000      0.2221
  369.0000      0.2227
  370.0000      0.2226
  371.0000      0.2220
  372.0000      0.2212
  373.0000      0.2210
  374.0000      0.2192
  375.0000      0.2175
  376.0000      0.2172
  377.0000      0.2170
  378.0000      0.2157
  379.0000      0.2155
  380.0000      0.2142
  381.0000      0.2147
  382.0000      0.2132
  383.0000      0.2123
  384.0000      0.2122
  385.0000      0.2107
  386.0000      0.2105
  387.0000      0.2097
  388.0000      0.2099
  389.0000      0.2083
  390.0000      0.2077
  391.0000      0.2069
  392.0000      0.2066
  393.0000      0.2058
  394.0000      0.2045
  395.0000      0.2036
  396.0000      0.2033
  397.0000      0.2026
  398.0000      0.2020
  399.0000      0.2012
  400.0000      0.2007
  401.0000      0.2001
  402.0000      0.1996
  403.0000      0.1988
  404.0000      0.1984
  405.0000      0.1972
  406.0000      0.1968
  407.0000      0.1964
  408.0000      0.1958
  409.0000      0.1951
  410.0000      0.1942
  411.0000      0.1936
  412.0000      0.1927
  413.0000      0.1922
  414.0000      0.1918
  415.0000      0.1907
  416.0000      0.1902
  417.0000      0.1894
  418.0000      0.1889
  419.0000      0.1883
  420.0000      0.1877
  421.0000      0.1871
  422.0000      0.1867
  423.0000      0.1860
  424.0000      0.1855
  425.0000      0.1851
  426.0000      0.1846
  427.0000      0.1842
  428.0000      0.1836
  429.0000      0.1831
  430.0000      0.1825
  431.0000      0.1821
  432.0000      0.1816
  433.0000      0.1811
  434.0000      0.1807
  435.0000      0.1802
  436.0000      0.1796
  437.0000      0.1792
  438.0000      0.1786
  439.0000      0.1781
  440.0000      0.1775
  441.0000      0.1770
  442.0000      0.1765
  443.0000      0.1758
  444.0000      0.1754
  445.0000      0.1748
  446.0000      0.1743
  447.0000      0.1736
  448.0000      0.1730
  449.0000      0.1724
  450.0000      0.1718
  451.0000      0.1712
  452.0000      0.1705
  453.0000      0.1699
  454.0000      0.1692
  455.0000      0.1686
  456.0000      0.1680
  457.0000      0.1674
  458.0000      0.1669
  459.0000      0.1662
  460.0000      0.1658
  461.0000      0.1654
  462.0000      0.1651
  463.0000      0.1648
  464.0000      0.1645
  465.0000      0.1645
  466.0000      0.1642
  467.0000      0.1639
  468.0000      0.1636
  469.0000      0.1633
  470.0000      0.1629
  471.0000      0.1624
  472.0000      0.1619
  473.0000      0.1614
  474.0000      0.1609
  475.0000      0.1603
  476.0000      0.1599
  477.0000      0.1595
  478.0000      0.1590
  479.0000      0.1586
  480.0000      0.1581
  481.0000      0.1576
  482.0000      0.1572
  483.0000      0.1567
  484.0000      0.1563
  485.0000      0.1558
  486.0000      0.1553
  487.0000      0.1549
  488.0000      0.1543
  489.0000      0.1538
  490.0000      0.1533
  491.0000      0.1529
  492.0000      0.1525
  493.0000      0.1521
  494.0000      0.1517
  495.0000      0.1514
  496.0000      0.1510
  497.0000      0.1506
  498.0000      0.1502
  499.0000      0.1496
  500.0000      0.1492
  501.0000      0.1488
  502.0000      0.1483
  503.0000      0.1479
  504.0000      0.1474
  505.0000      0.1470
  506.0000      0.1466
  507.0000      0.1461
  508.0000      0.1456
  509.0000      0.1452
  510.0000      0.1447
  511.0000      0.1443
  512.0000      0.1439
  513.0000      0.1434
  514.0000      0.1431
  515.0000      0.1427
  516.0000      0.1424
  517.0000      0.1420
  518.0000      0.1416
  519.0000      0.1413
  520.0000      0.1409
  521.0000      0.1406
  522.0000      0.1402
  523.0000      0.1399
  524.0000      0.1396
  525.0000      0.1392
  526.0000      0.1390
  527.0000      0.1387
  528.0000      0.1384
  529.0000      0.1380
  530.0000      0.1377
  531.0000      0.1374
  532.0000      0.1370
  533.0000      0.1366
  534.0000      0.1363
  535.0000      0.1359
  536.0000      0.1356
  537.0000      0.1351
  538.0000      0.1348
  539.0000      0.1344
  540.0000      0.1339
  541.0000      0.1335
  542.0000      0.1331
  543.0000      0.1328
  544.0000      0.1323
  545.0000      0.1320
  546.0000      0.1315
  547.0000      0.1310
  548.0000      0.1307
  549.0000      0.1303
  550.0000      0.1299
  551.0000      0.1295
  552.0000      0.1291
  553.0000      0.1288
  554.0000      0.1283
  555.0000      0.1280
  556.0000      0.1278
  557.0000      0.1278
  558.0000      0.1275
  559.0000      0.1272
  560.0000      0.1269
  561.0000      0.1266
  562.0000      0.1263
  563.0000      0.1259
  564.0000      0.1256
  565.0000      0.1252
  566.0000      0.1247
  567.0000      0.1242
  568.0000      0.1237
  569.0000      0.1232
  570.0000      0.1227
  571.0000      0.1223
  572.0000      0.1219
  573.0000      0.1215
  574.0000      0.1211
  575.0000      0.1208
  576.0000      0.1204
  577.0000      0.1201
  578.0000      0.1198
  579.0000      0.1195
  580.0000      0.1192
  581.0000      0.1189
  582.0000      0.1186
  583.0000      0.1183
  584.0000      0.1181
  585.0000      0.1179
  586.0000      0.1176
  587.0000      0.1173
  588.0000      0.1170
  589.0000      0.1167
  590.0000      0.1164
  591.0000      0.1161
  592.0000      0.1157
  593.0000      0.1154
  594.0000      0.1152
  595.0000      0.1150
  596.0000      0.1148
  597.0000      0.1147
  598.0000      0.1146
  599.0000      0.1145
  600.0000      0.1143
  601.0000      0.1140
  602.0000      0.1137
  603.0000      0.1135
  604.0000      0.1133
  605.0000      0.1131
  606.0000      0.1129
  607.0000      0.1127
  608.0000      0.1125
  609.0000      0.1124
  610.0000      0.1122
  611.0000      0.1120
  612.0000      0.1117
  613.0000      0.1115
  614.0000      0.1112
  615.0000      0.1110
  616.0000      0.1108
  617.0000      0.1105
  618.0000      0.1103
  619.0000      0.1100
  620.0000      0.1098
  621.0000      0.1096
  622.0000      0.1094
  623.0000      0.1092
  624.0000      0.1090
  625.0000      0.1088
  626.0000      0.1086
  627.0000      0.1083
  628.0000      0.1080
  629.0000      0.1078
  630.0000      0.1075
  631.0000      0.1073
  632.0000      0.1070
  633.0000      0.1067
  634.0000      0.1065
  635.0000      0.1061
  636.0000      0.1059
  637.0000      0.1057
  638.0000      0.1054
  639.0000      0.1052
  640.0000      0.1050
  641.0000      0.1048
  642.0000      0.1046
  643.0000      0.1044
  644.0000      0.1042
  645.0000      0.1040
  646.0000      0.1038
  647.0000      0.1035
  648.0000      0.1033
  649.0000      0.1030
  650.0000      0.1028
  651.0000      0.1025
  652.0000      0.1023
  653.0000      0.1021
  654.0000      0.1019
  655.0000      0.1017
  656.0000      0.1015
  657.0000      0.1012
  658.0000      0.1010
  659.0000      0.1009
  660.0000      0.1007
  661.0000      0.1005
  662.0000      0.1005
  663.0000      0.1003
  664.0000      0.1002
  665.0000      0.1000
  666.0000      0.0999
  667.0000      0.0998
  668.0000      0.0997
  669.0000      0.0995
  670.0000      0.0993
  671.0000      0.0992
  672.0000      0.0990
  673.0000      0.0988
  674.0000      0.0986
  675.0000      0.0985
  676.0000      0.0984
  677.0000      0.0983
  678.0000      0.0982
  679.0000      0.0982
  680.0000      0.0981
  681.0000      0.0980
  682.0000      0.0978
  683.0000      0.0976
  684.0000      0.0974
  685.0000      0.0973
  686.0000      0.0971
  687.0000      0.0969
  688.0000      0.0967
  689.0000      0.0965
  690.0000      0.0963
  691.0000      0.0960
  692.0000      0.0959
  693.0000      0.0957
  694.0000      0.0955
  695.0000      0.0952
  696.0000      0.0950
  697.0000      0.0949
  698.0000      0.0946
  699.0000      0.0945
  700.0000      0.0943
  701.0000      0.0941
  702.0000      0.0939
  703.0000      0.0937
  704.0000      0.0935
  705.0000      0.0933
  706.0000      0.0930
  707.0000      0.0928
  708.0000      0.0925
  709.0000      0.0922
  710.0000      0.0921
  711.0000      0.0917
  712.0000      0.0915
  713.0000      0.0913
  714.0000      0.0910
  715.0000      0.0908
  716.0000      0.0906
  717.0000      0.0904
  718.0000      0.0902
  719.0000      0.0900
  720.0000      0.0898
  721.0000      0.0897
  722.0000      0.0894
  723.0000      0.0893
  724.0000      0.0892
  725.0000      0.0890
  726.0000      0.0889
  727.0000      0.0888
  728.0000      0.0886
  729.0000      0.0883
  730.0000      0.0881
  731.0000      0.0879
  732.0000      0.0878
  733.0000      0.0875
  734.0000      0.0873
  735.0000      0.0873
  736.0000      0.0870
  737.0000      0.0869
  738.0000      0.0867
  739.0000      0.0865
  740.0000      0.0864
  741.0000      0.0862
  742.0000      0.0861
  743.0000      0.0859
  744.0000      0.0858
  745.0000      0.0857
  746.0000      0.0856
  747.0000      0.0856
  748.0000      0.0855
  749.0000      0.0853
  750.0000      0.0851
  751.0000      0.0849
  752.0000      0.0847
  753.0000      0.0845
  754.0000      0.0843
  755.0000      0.0841
  756.0000      0.0839
  757.0000      0.0837
  758.0000      0.0835
  759.0000      0.0832
  760.0000      0.0830
  761.0000      0.0828
  762.0000      0.0826
  763.0000      0.0824
  764.0000      0.0822
  765.0000      0.0820
  766.0000      0.0818
  767.0000      0.0817
  768.0000      0.0816
  769.0000      0.0814
  770.0000      0.0812
  771.0000      0.0811
  772.0000      0.0810
  773.0000      0.0808
  774.0000      0.0806
  775.0000      0.0805
  776.0000      0.0804
  777.0000      0.0803
  778.0000      0.0803
  779.0000      0.0802
  780.0000      0.0800
  781.0000      0.0799
  782.0000      0.0798
  783.0000      0.0797
  784.0000      0.0797
  785.0000      0.0796
  786.0000      0.0795
  787.0000      0.0793
  788.0000      0.0792
  789.0000      0.0791
  790.0000      0.0791
  791.0000      0.0790
  792.0000      0.0789
  793.0000      0.0788
  794.0000      0.0787
  795.0000      0.0786
  796.0000      0.0785
  797.0000      0.0783
  798.0000      0.0781
  799.0000      0.0779
  800.0000      0.0778
