Start Wavelength:    200.0000
End Wavelength:    800.0000
Read Mode:  ABS
Read Average:      0.1000
Nanometer Interval:      1.0000
Time:      0.0000

  200.0000      1.6340
  201.0000      1.5494
  202.0000      1.4885
  203.0000      1.4524
  204.0000      1.3988
  205.0000      1.3508
  206.0000      1.3186
  207.0000      1.2715
  208.0000      1.2456
  209.0000      1.2029
  210.0000      1.1634
  211.0000      1.1435
  212.0000      1.1069
  213.0000      1.0790
  214.0000      1.0538
  215.0000      1.0288
  216.0000      1.0064
  217.0000      0.9804
  218.0000      0.9608
  219.0000      0.9398
  220.0000      0.9196
  221.0000      0.9007
  222.0000      0.8815
  223.0000      0.8632
  224.0000      0.8481
  225.0000      0.8295
  226.0000      0.8145
  227.0000      0.7990
  228.0000      0.7853
  229.0000      0.7683
  230.0000      0.7535
  231.0000      0.7394
  232.0000      0.7246
  233.0000      0.7109
  234.0000      0.6979
  235.0000      0.6840
  236.0000      0.6741
  237.0000      0.6617
  238.0000      0.6519
  239.0000      0.6417
  240.0000      0.6340
  241.0000      0.6254
  242.0000      0.6177
  243.0000      0.6117
  244.0000      0.6055
  245.0000      0.5996
  246.0000      0.5955
  247.0000      0.5905
  248.0000      0.5863
  249.0000      0.5823
  250.0000      0.5793
  251.0000      0.5754
  252.0000      0.5713
  253.0000      0.5680
  254.0000      0.5642
  255.0000      0.5612
  256.0000      0.5582
  257.0000      0.5540
  258.0000      0.5513
  259.0000      0.5474
  260.0000      0.5439
  261.0000      0.5402
  262.0000      0.5349
  263.0000      0.5312
  264.0000      0.5269
  265.0000      0.5221
  266.0000      0.5189
  267.0000      0.5122
  268.0000      0.5072
  269.0000      0.5027
  270.0000      0.4969
  271.0000      0.4907
  272.0000      0.4847
  273.0000      0.4808
  274.0000      0.4731
  275.0000      0.4662
  276.0000      0.4612
  277.0000      0.4538
  278.0000      0.4486
  279.0000      0.4421
  280.0000      0.4354
  281.0000      0.4292
  282.0000      0.4223
  283.0000      0.4172
  284.0000      0.4096
  285.0000      0.4023
  286.0000      0.3975
  287.0000      0.3902
  288.0000      0.3839
  289.0000      0.3778
  290.0000      0.3711
  291.0000      0.3647
  292.0000      0.3583
  293.0000      0.3532
  294.0000      0.3463
  295.0000      0.3401
  296.0000      0.3357
  297.0000      0.3294
  298.0000      0.3241
  299.0000      0.3191
  300.0000      0.3141
  301.0000      0.3102
  302.0000      0.3056
  303.0000      0.3022
  304.0000      0.2968
  305.0000      0.2934
  306.0000      0.2914
  307.0000      0.2870
  308.0000      0.2837
  309.0000      0.2808
  310.0000      0.2778
  311.0000      0.2752
  312.0000      0.2718
  313.0000      0.2690
  314.0000      0.2666
  315.0000      0.2638
  316.0000      0.2617
  317.0000      0.2586
  318.0000      0.2561
  319.0000      0.2539
  320.0000      0.2520
  321.0000      0.2509
  322.0000      0.2484
  323.0000      0.2468
  324.0000      0.2429
  325.0000      0.2422
  326.0000      0.2398
  327.0000      0.2377
  328.0000      0.2361
  329.0000      0.2334
  330.0000      0.2319
  331.0000      0.2300
  332.0000      0.2282
  333.0000      0.2273
  334.0000      0.2247
  335.0000      0.2224
  336.0000      0.2215
  337.0000      0.2199
  338.0000      0.2183
  339.0000      0.2162
  340.0000      0.2150
  341.0000      0.2132
  342.0000      0.2117
  343.0000      0.2103
  344.0000      0.2082
  345.0000      0.2069
  346.0000      0.2056
  347.0000      0.2041
  348.0000      0.2022
  349.0000      0.2012
  350.0000      0.2003
  351.0000      0.1987
  352.0000      0.1971
  353.0000      0.1961
  354.0000      0.1949
  355.0000      0.1936
  356.0000      0.1934
  357.0000      0.1895
  358.0000      0.1908
  359.0000      0.1896
  360.0000      0.1882
  361.0000      0.1888
  362.0000      0.1865
  363.0000      0.1845
  364.0000      0.1849
  365.0000      0.1830
  366.0000      0.1841
  367.0000      0.1790
  368.0000      0.1813
  369.0000      0.1821
  370.0000      0.1772
  371.0000      0.1787
  372.0000      0.1766
  373.0000      0.1771
  374.0000      0.1770
  375.0000      0.1743
  376.0000      0.1761
  377.0000      0.1735
  378.0000      0.1738
  379.0000      0.1732
  380.0000      0.1710
  381.0000      0.1714
  382.0000      0.1701
  383.0000      0.1707
  384.0000      0.1694
  385.0000      0.1681
  386.0000      0.1680
  387.0000      0.1669
  388.0000      0.1661
  389.0000      0.1664
  390.0000      0.1649
  391.0000      0.1643
  392.0000      0.1637
  393.0000      0.1631
  394.0000      0.1622
  395.0000      0.1615
  396.0000      0.1611
  397.0000      0.1609
  398.0000      0.1599
  399.0000      0.1596
  400.0000      0.1587
  401.0000      0.1578
  402.0000      0.1574
  403.0000      0.1569
  404.0000      0.1567
  405.0000      0.1555
  406.0000      0.1550
  407.0000      0.1556
  408.0000      0.1551
  409.0000      0.1541
  410.0000      0.1543
  411.0000      0.1541
  412.0000      0.1537
  413.0000      0.1525
  414.0000      0.1522
  415.0000      0.1523
  416.0000      0.1517
  417.0000      0.1513
  418.0000      0.1510
  419.0000      0.1504
  420.0000      0.1499
  421.0000      0.1493
  422.0000      0.1487
  423.0000      0.1484
  424.0000      0.1476
  425.0000      0.1471
  426.0000      0.1466
  427.0000      0.1459
  428.0000      0.1456
  429.0000      0.1451
  430.0000      0.1447
  431.0000      0.1442
  432.0000      0.1440
  433.0000      0.1435
  434.0000      0.1432
  435.0000      0.1428
  436.0000      0.1426
  437.0000      0.1423
  438.0000      0.1420
  439.0000      0.1415
  440.0000      0.1409
  441.0000      0.1405
  442.0000      0.1398
  443.0000      0.1391
  444.0000      0.1384
  445.0000      0.1377
  446.0000      0.1369
  447.0000      0.1361
  448.0000      0.1352
  449.0000      0.1344
  450.0000      0.1335
  451.0000      0.1327
  452.0000      0.1318
  453.0000      0.1310
  454.0000      0.1303
  455.0000      0.1295
  456.0000      0.1287
  457.0000      0.1281
  458.0000      0.1274
  459.0000      0.1270
  460.0000      0.1264
  461.0000      0.1260
  462.0000      0.1258
  463.0000      0.1255
  464.0000      0.1251
  465.0000      0.1248
  466.0000      0.1244
  467.0000      0.1241
  468.0000      0.1238
  469.0000      0.1234
  470.0000      0.1229
  471.0000      0.1224
  472.0000      0.1219
  473.0000      0.1213
  474.0000      0.1208
  475.0000      0.1203
  476.0000      0.1196
  477.0000      0.1192
  478.0000      0.1186
  479.0000      0.1181
  480.0000      0.1176
  481.0000      0.1172
  482.0000      0.1166
  483.0000      0.1163
  484.0000      0.1159
  485.0000      0.1155
  486.0000      0.1150
  487.0000      0.1146
  488.0000      0.1141
  489.0000      0.1138
  490.0000      0.1134
  491.0000      0.1130
  492.0000      0.1125
  493.0000      0.1121
  494.0000      0.1117
  495.0000      0.1112
  496.0000      0.1109
  497.0000      0.1103
  498.0000      0.1099
  499.0000      0.1095
  500.0000      0.1090
  501.0000      0.1085
  502.0000      0.1080
  503.0000      0.1075
  504.0000      0.1071
  505.0000      0.1067
  506.0000      0.1062
  507.0000      0.1057
  508.0000      0.1051
  509.0000      0.1046
  510.0000      0.1040
  511.0000      0.1035
  512.0000      0.1029
  513.0000      0.1024
  514.0000      0.1019
  515.0000      0.1014
  516.0000      0.1008
  517.0000      0.1003
  518.0000      0.0999
  519.0000      0.0993
  520.0000      0.0989
  521.0000      0.0984
  522.0000      0.0979
  523.0000      0.0975
  524.0000      0.0970
  525.0000      0.0966
  526.0000      0.0962
  527.0000      0.0957
  528.0000      0.0954
  529.0000      0.0949
  530.0000      0.0944
  531.0000      0.0939
  532.0000      0.0936
  533.0000      0.0932
  534.0000      0.0928
  535.0000      0.0925
  536.0000      0.0922
  537.0000      0.0919
  538.0000      0.0917
  539.0000      0.0914
  540.0000      0.0911
  541.0000      0.0909
  542.0000      0.0907
  543.0000      0.0903
  544.0000      0.0900
  545.0000      0.0898
  546.0000      0.0895
  547.0000      0.0891
  548.0000      0.0888
  549.0000      0.0886
  550.0000      0.0882
  551.0000      0.0879
  552.0000      0.0875
  553.0000      0.0872
  554.0000      0.0869
  555.0000      0.0866
  556.0000      0.0865
  557.0000      0.0861
  558.0000      0.0858
  559.0000      0.0855
  560.0000      0.0852
  561.0000      0.0849
  562.0000      0.0846
  563.0000      0.0843
  564.0000      0.0840
  565.0000      0.0837
  566.0000      0.0834
  567.0000      0.0831
  568.0000      0.0829
  569.0000      0.0827
  570.0000      0.0824
  571.0000      0.0822
  572.0000      0.0820
  573.0000      0.0817
  574.0000      0.0815
  575.0000      0.0813
  576.0000      0.0809
  577.0000      0.0806
  578.0000      0.0804
  579.0000      0.0802
  580.0000      0.0800
  581.0000      0.0798
  582.0000      0.0796
  583.0000      0.0793
  584.0000      0.0792
  585.0000      0.0790
  586.0000      0.0788
  587.0000      0.0786
  588.0000      0.0784
  589.0000      0.0782
  590.0000      0.0781
  591.0000      0.0779
  592.0000      0.0777
  593.0000      0.0775
  594.0000      0.0774
  595.0000      0.0772
  596.0000      0.0771
  597.0000      0.0769
  598.0000      0.0767
  599.0000      0.0765
  600.0000      0.0764
  601.0000      0.0763
  602.0000      0.0761
  603.0000      0.0760
  604.0000      0.0758
  605.0000      0.0758
  606.0000      0.0757
  607.0000      0.0757
  608.0000      0.0756
  609.0000      0.0756
  610.0000      0.0755
  611.0000      0.0755
  612.0000      0.0755
  613.0000      0.0755
  614.0000      0.0755
  615.0000      0.0754
  616.0000      0.0754
  617.0000      0.0753
  618.0000      0.0753
  619.0000      0.0753
  620.0000      0.0753
  621.0000      0.0752
  622.0000      0.0752
  623.0000      0.0751
  624.0000      0.0750
  625.0000      0.0750
  626.0000      0.0748
  627.0000      0.0747
  628.0000      0.0746
  629.0000      0.0745
  630.0000      0.0744
  631.0000      0.0743
  632.0000      0.0742
  633.0000      0.0741
  634.0000      0.0739
  635.0000      0.0738
  636.0000      0.0736
  637.0000      0.0735
  638.0000      0.0733
  639.0000      0.0731
  640.0000      0.0730
  641.0000      0.0728
  642.0000      0.0726
  643.0000      0.0723
  644.0000      0.0722
  645.0000      0.0720
  646.0000      0.0718
  647.0000      0.0716
  648.0000      0.0713
  649.0000      0.0711
  650.0000      0.0710
  651.0000      0.0708
  652.0000      0.0707
  653.0000      0.0705
  654.0000      0.0704
  655.0000      0.0703
  656.0000      0.0702
  657.0000      0.0702
  658.0000      0.0702
  659.0000      0.0702
  660.0000      0.0702
  661.0000      0.0703
  662.0000      0.0705
  663.0000      0.0706
  664.0000      0.0707
  665.0000      0.0709
  666.0000      0.0711
  667.0000      0.0713
  668.0000      0.0716
  669.0000      0.0718
  670.0000      0.0719
  671.0000      0.0721
  672.0000      0.0723
  673.0000      0.0724
  674.0000      0.0726
  675.0000      0.0728
  676.0000      0.0731
  677.0000      0.0732
  678.0000      0.0733
  679.0000      0.0733
  680.0000      0.0735
  681.0000      0.0733
  682.0000      0.0732
  683.0000      0.0730
  684.0000      0.0728
  685.0000      0.0724
  686.0000      0.0719
  687.0000      0.0714
  688.0000      0.0708
  689.0000      0.0703
  690.0000      0.0697
  691.0000      0.0693
  692.0000      0.0687
  693.0000      0.0682
  694.0000      0.0677
  695.0000      0.0672
  696.0000      0.0667
  697.0000      0.0662
  698.0000      0.0657
  699.0000      0.0652
  700.0000      0.0649
  701.0000      0.0644
  702.0000      0.0641
  703.0000      0.0637
  704.0000      0.0634
  705.0000      0.0631
  706.0000      0.0627
  707.0000      0.0625
  708.0000      0.0621
  709.0000      0.0619
  710.0000      0.0616
  711.0000      0.0613
  712.0000      0.0611
  713.0000      0.0608
  714.0000      0.0605
  715.0000      0.0602
  716.0000      0.0599
  717.0000      0.0597
  718.0000      0.0595
  719.0000      0.0593
  720.0000      0.0591
  721.0000      0.0589
  722.0000      0.0587
  723.0000      0.0586
  724.0000      0.0583
  725.0000      0.0582
  726.0000      0.0580
  727.0000      0.0578
  728.0000      0.0577
  729.0000      0.0575
  730.0000      0.0573
  731.0000      0.0571
  732.0000      0.0570
  733.0000      0.0567
  734.0000      0.0565
  735.0000      0.0564
  736.0000      0.0554
  737.0000      0.0552
  738.0000      0.0551
  739.0000      0.0549
  740.0000      0.0546
  741.0000      0.0545
  742.0000      0.0544
  743.0000      0.0541
  744.0000      0.0541
  745.0000      0.0539
  746.0000      0.0538
  747.0000      0.0537
  748.0000      0.0536
  749.0000      0.0534
  750.0000      0.0533
  751.0000      0.0532
  752.0000      0.0531
  753.0000      0.0530
  754.0000      0.0529
  755.0000      0.0528
  756.0000      0.0528
  757.0000      0.0528
  758.0000      0.0527
  759.0000      0.0527
  760.0000      0.0526
  761.0000      0.0525
  762.0000      0.0525
  763.0000      0.0524
  764.0000      0.0524
  765.0000      0.0523
  766.0000      0.0522
  767.0000      0.0521
  768.0000      0.0521
  769.0000      0.0521
  770.0000      0.0520
  771.0000      0.0520
  772.0000      0.0519
  773.0000      0.0518
  774.0000      0.0517
  775.0000      0.0515
  776.0000      0.0515
  777.0000      0.0513
  778.0000      0.0512
  779.0000      0.0511
  780.0000      0.0511
  781.0000      0.0510
  782.0000      0.0510
  783.0000      0.0509
  784.0000      0.0508
  785.0000      0.0508
  786.0000      0.0507
  787.0000      0.0506
  788.0000      0.0505
  789.0000      0.0504
  790.0000      0.0504
  791.0000      0.0503
  792.0000      0.0503
  793.0000      0.0502
  794.0000      0.0501
  795.0000      0.0500
  796.0000      0.0499
  797.0000      0.0498
  798.0000      0.0499
  799.0000      0.0498
  800.0000      0.0497
