Start Wavelength:    200.0000
End Wavelength:    800.0000
Read Mode:  ABS
Read Average:      0.1000
Nanometer Interval:      1.0000
Time:      0.0000

  215.0000      0.2534
  216.0000      0.2443
  217.0000      0.2336
  218.0000      0.2245
  219.0000      0.2161
  220.0000      0.2083
  221.0000      0.1989
  222.0000      0.1912
  223.0000      0.1845
  224.0000      0.1773
  225.0000      0.1708
  226.0000      0.1648
  227.0000      0.1587
  228.0000      0.1544
  229.0000      0.1490
  230.0000      0.1448
  231.0000      0.1406
  232.0000      0.1370
  233.0000      0.1330
  234.0000      0.1300
  235.0000      0.1272
  236.0000      0.1241
  237.0000      0.1217
  238.0000      0.1194
  239.0000      0.1172
  240.0000      0.1154
  241.0000      0.1133
  242.0000      0.1113
  243.0000      0.1106
  244.0000      0.1088
  245.0000      0.1070
  246.0000      0.1062
  247.0000      0.1054
  248.0000      0.1045
  249.0000      0.1036
  250.0000      0.1025
  251.0000      0.1016
  252.0000      0.1012
  253.0000      0.1006
  254.0000      0.0995
  255.0000      0.0987
  256.0000      0.0978
  257.0000      0.0974
  258.0000      0.0967
  259.0000      0.0957
  260.0000      0.0945
  261.0000      0.0943
  262.0000      0.0932
  263.0000      0.0922
  264.0000      0.0914
  265.0000      0.0902
  266.0000      0.0891
  267.0000      0.0888
  268.0000      0.0871
  269.0000      0.0858
  270.0000      0.0847
  271.0000      0.0832
  272.0000      0.0823
  273.0000      0.0814
  274.0000      0.0790
  275.0000      0.0784
  276.0000      0.0776
  277.0000      0.0758
  278.0000      0.0742
  279.0000      0.0731
  280.0000      0.0716
  281.0000      0.0706
  282.0000      0.0690
  283.0000      0.0673
  284.0000      0.0667
  285.0000      0.0652
  286.0000      0.0640
  287.0000      0.0624
  288.0000      0.0608
  289.0000      0.0595
  290.0000      0.0583
  291.0000      0.0572
  292.0000      0.0553
  293.0000      0.0543
  294.0000      0.0535
  295.0000      0.0520
  296.0000      0.0508
  297.0000      0.0498
  298.0000      0.0489
  299.0000      0.0484
  300.0000      0.0470
  301.0000      0.0458
  302.0000      0.0450
  303.0000      0.0443
  304.0000      0.0436
  305.0000      0.0426
  306.0000      0.0410
  307.0000      0.0403
  308.0000      0.0399
  309.0000      0.0389
  310.0000      0.0386
  311.0000      0.0379
  312.0000      0.0367
  313.0000      0.0367
  314.0000      0.0364
  315.0000      0.0348
  316.0000      0.0341
  317.0000      0.0341
  318.0000      0.0333
  319.0000      0.0321
  320.0000      0.0318
  321.0000      0.0314
  322.0000      0.0294
  323.0000      0.0286
  324.0000      0.0278
  325.0000      0.0278
  326.0000      0.0268
  327.0000      0.0262
  328.0000      0.0259
  329.0000      0.0256
  330.0000      0.0251
  331.0000      0.0254
  332.0000      0.0243
  333.0000      0.0239
  334.0000      0.0236
  335.0000      0.0231
  336.0000      0.0229
  337.0000      0.0223
  338.0000      0.0221
  339.0000      0.0217
  340.0000      0.0215
  341.0000      0.0206
  342.0000      0.0205
  343.0000      0.0202
  344.0000      0.0197
  345.0000      0.0197
  346.0000      0.0193
  347.0000      0.0184
  348.0000      0.0186
  349.0000      0.0184
  350.0000      0.0180
  351.0000      0.0174
  352.0000      0.0171
  353.0000      0.0169
  354.0000      0.0169
  355.0000      0.0164
  356.0000      0.0159
  357.0000      0.0160
  358.0000      0.0154
  359.0000      0.0169
  360.0000      0.0170
  361.0000      0.0136
  362.0000      0.0154
  363.0000      0.0144
  364.0000      0.0141
  365.0000      0.0145
  366.0000      0.0139
  367.0000      0.0130
  368.0000      0.0136
  369.0000      0.0140
  370.0000      0.0115
  371.0000      0.0132
  372.0000      0.0123
  373.0000      0.0123
  374.0000      0.0125
  375.0000      0.0106
  376.0000      0.0111
  377.0000      0.0118
  378.0000      0.0113
  379.0000      0.0104
  380.0000      0.0115
  381.0000      0.0099
  382.0000      0.0104
  383.0000      0.0102
  384.0000      0.0096
  385.0000      0.0096
  386.0000      0.0098
  387.0000      0.0094
  388.0000      0.0081
  389.0000      0.0088
  390.0000      0.0086
  391.0000      0.0087
  392.0000      0.0080
  393.0000      0.0080
  394.0000      0.0080
  395.0000      0.0082
  396.0000      0.0078
  397.0000      0.0073
  398.0000      0.0075
  399.0000      0.0074
  400.0000      0.0078
  401.0000      0.0074
  402.0000      0.0063
  403.0000      0.0065
  404.0000      0.0068
  405.0000      0.0064
  406.0000      0.0063
  407.0000      0.0069
  408.0000      0.0060
  409.0000      0.0061
  410.0000      0.0057
  411.0000      0.0057
  412.0000      0.0056
  413.0000      0.0056
  414.0000      0.0055
  415.0000      0.0052
  416.0000      0.0052
  417.0000      0.0050
  418.0000      0.0049
  419.0000      0.0049
  420.0000      0.0048
  421.0000      0.0046
  422.0000      0.0046
  423.0000      0.0045
  424.0000      0.0044
  425.0000      0.0043
  426.0000      0.0041
  427.0000      0.0041
  428.0000      0.0040
  429.0000      0.0040
  430.0000      0.0039
  431.0000      0.0038
  432.0000      0.0038
  433.0000      0.0037
  434.0000      0.0036
  435.0000      0.0035
  436.0000      0.0036
  437.0000      0.0034
  438.0000      0.0033
  439.0000      0.0032
  440.0000      0.0032
  441.0000      0.0031
  442.0000      0.0031
  443.0000      0.0030
  444.0000      0.0028
  445.0000      0.0029
  446.0000      0.0029
  447.0000      0.0028
  448.0000      0.0027
  449.0000      0.0027
  450.0000      0.0026
  451.0000      0.0026
  452.0000      0.0024
  453.0000      0.0024
  454.0000      0.0024
  455.0000      0.0023
  456.0000      0.0022
  457.0000      0.0022
  458.0000      0.0022
  459.0000      0.0022
  460.0000      0.0021
  461.0000      0.0021
  462.0000      0.0021
  463.0000      0.0021
  464.0000      0.0021
  465.0000      0.0021
  466.0000      0.0020
  467.0000      0.0021
  468.0000      0.0021
  469.0000      0.0020
  470.0000      0.0020
  471.0000      0.0019
  472.0000      0.0019
  473.0000      0.0019
  474.0000      0.0018
  475.0000      0.0017
  476.0000      0.0017
  477.0000      0.0017
  478.0000      0.0017
  479.0000      0.0016
  480.0000      0.0015
  481.0000      0.0015
  482.0000      0.0015
  483.0000      0.0014
  484.0000      0.0014
  485.0000      0.0013
  486.0000      0.0013
  487.0000      0.0013
  488.0000      0.0012
  489.0000      0.0012
  490.0000      0.0012
  491.0000      0.0012
  492.0000      0.0011
  493.0000      0.0011
  494.0000      0.0010
  495.0000      0.0011
  496.0000      0.0010
  497.0000      0.0010
  498.0000      0.0009
  499.0000      0.0009
  500.0000      0.0009
  501.0000      0.0009
  502.0000      0.0009
  503.0000      0.0009
  504.0000      0.0008
  505.0000      0.0008
  506.0000      0.0008
  507.0000      0.0007
  508.0000      0.0007
  509.0000      0.0007
  510.0000      0.0006
  511.0000      0.0007
  512.0000      0.0006
  513.0000      0.0006
  514.0000      0.0006
  515.0000      0.0006
  516.0000      0.0006
  517.0000      0.0006
  518.0000      0.0005
  519.0000      0.0005
  520.0000      0.0005
  521.0000      0.0005
  522.0000      0.0005
  523.0000      0.0005
  524.0000      0.0004
  525.0000      0.0004
  526.0000      0.0004
  527.0000      0.0004
  528.0000      0.0004
  529.0000      0.0003
  530.0000      0.0003
  531.0000      0.0003
  532.0000      0.0003
  533.0000      0.0003
  534.0000      0.0002
  535.0000      0.0003
  536.0000      0.0002
  537.0000      0.0003
  538.0000      0.0002
  539.0000      0.0002
  540.0000      0.0002
  541.0000      0.0002
  542.0000      0.0002
  543.0000      0.0002
  544.0000      0.0002
  545.0000      0.0002
  546.0000      0.0002
  547.0000      0.0001
  548.0000      0.0001
  549.0000      0.0001
  550.0000      0.0001
  551.0000      0.0001
  552.0000      0.0000
  553.0000      0.0000
  554.0000      0.0000
  555.0000     -0.0000
  556.0000     -0.0001
  557.0000      0.0003
  558.0000      0.0003
  559.0000      0.0002
  560.0000      0.0002
  561.0000      0.0002
  562.0000      0.0002
  563.0000      0.0001
  564.0000      0.0001
  565.0000      0.0001
  566.0000      0.0001
  567.0000      0.0001
  568.0000      0.0000
  569.0000     -0.0000
  570.0000     -0.0000
  571.0000      0.0000
  572.0000     -0.0000
  573.0000     -0.0001
  574.0000     -0.0001
  575.0000     -0.0001
  576.0000     -0.0001
  577.0000     -0.0001
  578.0000     -0.0001
  579.0000     -0.0001
  580.0000     -0.0001
  581.0000     -0.0001
  582.0000     -0.0001
  583.0000     -0.0001
  584.0000     -0.0001
  585.0000     -0.0001
  586.0000     -0.0002
  587.0000     -0.0002
  588.0000     -0.0002
  589.0000     -0.0002
  590.0000     -0.0002
  591.0000     -0.0002
  592.0000     -0.0002
  593.0000     -0.0002
  594.0000     -0.0002
  595.0000     -0.0002
  596.0000     -0.0002
  597.0000     -0.0002
  598.0000     -0.0002
  599.0000     -0.0002
  600.0000     -0.0002
  601.0000     -0.0003
  602.0000     -0.0003
  603.0000     -0.0003
  604.0000     -0.0003
  605.0000     -0.0003
  606.0000     -0.0003
  607.0000     -0.0003
  608.0000     -0.0003
  609.0000     -0.0003
  610.0000     -0.0003
  611.0000     -0.0003
  612.0000     -0.0003
  613.0000     -0.0003
  614.0000     -0.0003
  615.0000     -0.0003
  616.0000     -0.0003
  617.0000     -0.0003
  618.0000     -0.0003
  619.0000     -0.0003
  620.0000     -0.0003
  621.0000     -0.0003
  622.0000     -0.0002
  623.0000     -0.0003
  624.0000     -0.0002
  625.0000     -0.0002
  626.0000     -0.0002
  627.0000     -0.0002
  628.0000     -0.0002
  629.0000     -0.0002
  630.0000     -0.0002
  631.0000     -0.0002
  632.0000     -0.0001
  633.0000     -0.0002
  634.0000     -0.0002
  635.0000     -0.0001
  636.0000     -0.0001
  637.0000     -0.0001
  638.0000     -0.0002
  639.0000     -0.0002
  640.0000     -0.0002
  641.0000     -0.0002
  642.0000     -0.0002
  643.0000     -0.0002
  644.0000     -0.0002
  645.0000     -0.0002
  646.0000     -0.0002
  647.0000     -0.0002
  648.0000     -0.0002
  649.0000     -0.0002
  650.0000     -0.0002
  651.0000     -0.0002
  652.0000     -0.0002
  653.0000     -0.0002
  654.0000     -0.0002
  655.0000     -0.0002
  656.0000     -0.0002
  657.0000     -0.0002
  658.0000     -0.0002
  659.0000     -0.0002
  660.0000     -0.0002
  661.0000     -0.0002
  662.0000     -0.0002
  663.0000     -0.0002
  664.0000     -0.0002
  665.0000     -0.0002
  666.0000     -0.0002
  667.0000     -0.0002
  668.0000     -0.0002
  669.0000     -0.0002
  670.0000     -0.0002
  671.0000     -0.0002
  672.0000     -0.0002
  673.0000     -0.0002
  674.0000     -0.0002
  675.0000     -0.0002
  676.0000     -0.0002
  677.0000     -0.0002
  678.0000     -0.0002
  679.0000     -0.0002
  680.0000     -0.0002
  681.0000     -0.0001
  682.0000     -0.0001
  683.0000     -0.0001
  684.0000     -0.0001
  685.0000     -0.0000
  686.0000     -0.0000
  687.0000     -0.0001
  688.0000     -0.0001
  689.0000     -0.0000
  690.0000     -0.0000
  691.0000     -0.0000
  692.0000     -0.0000
  693.0000     -0.0000
  694.0000     -0.0000
  695.0000     -0.0000
  696.0000     -0.0000
  697.0000      0.0000
  698.0000      0.0000
  699.0000     -0.0000
  700.0000     -0.0000
  701.0000     -0.0000
  702.0000     -0.0001
  703.0000     -0.0001
  704.0000     -0.0001
  705.0000     -0.0001
  706.0000     -0.0002
  707.0000     -0.0002
  708.0000     -0.0002
  709.0000     -0.0003
  710.0000     -0.0003
  711.0000     -0.0003
  712.0000     -0.0003
  713.0000     -0.0003
  714.0000     -0.0003
  715.0000     -0.0003
  716.0000     -0.0003
  717.0000     -0.0003
  718.0000     -0.0003
  719.0000     -0.0003
  720.0000     -0.0004
  721.0000     -0.0004
  722.0000     -0.0004
  723.0000     -0.0004
  724.0000     -0.0004
  725.0000     -0.0004
  726.0000     -0.0004
  727.0000     -0.0005
  728.0000     -0.0004
  729.0000     -0.0005
  730.0000     -0.0005
  731.0000     -0.0005
  732.0000     -0.0006
  733.0000     -0.0006
  734.0000     -0.0006
  735.0000     -0.0007
  736.0000     -0.0009
  737.0000     -0.0009
  738.0000     -0.0010
  739.0000     -0.0010
  740.0000     -0.0009
  741.0000     -0.0010
  742.0000     -0.0010
  743.0000     -0.0010
  744.0000     -0.0009
  745.0000     -0.0009
  746.0000     -0.0009
  747.0000     -0.0009
  748.0000     -0.0009
  749.0000     -0.0009
  750.0000     -0.0009
  751.0000     -0.0008
  752.0000     -0.0008
  753.0000     -0.0008
  754.0000     -0.0008
  755.0000     -0.0008
  756.0000     -0.0007
  757.0000     -0.0007
  758.0000     -0.0007
  759.0000     -0.0007
  760.0000     -0.0007
  761.0000     -0.0007
  762.0000     -0.0006
  763.0000     -0.0006
  764.0000     -0.0006
  765.0000     -0.0006
  766.0000     -0.0006
  767.0000     -0.0005
  768.0000     -0.0005
  769.0000     -0.0006
  770.0000     -0.0005
  771.0000     -0.0005
  772.0000     -0.0005
  773.0000     -0.0005
  774.0000     -0.0005
  775.0000     -0.0005
  776.0000     -0.0004
  777.0000     -0.0004
  778.0000     -0.0004
  779.0000     -0.0004
  780.0000     -0.0004
  781.0000     -0.0004
  782.0000     -0.0004
  783.0000     -0.0003
  784.0000     -0.0003
  785.0000     -0.0003
  786.0000     -0.0003
  787.0000     -0.0003
  788.0000     -0.0003
  789.0000     -0.0003
  790.0000     -0.0003
  791.0000     -0.0003
  792.0000     -0.0003
  793.0000     -0.0003
  794.0000     -0.0003
  795.0000     -0.0002
  796.0000     -0.0003
  797.0000     -0.0003
  798.0000     -0.0003
  799.0000     -0.0003
  800.0000     -0.0004
