Start Wavelength:    200.0000
End Wavelength:    800.0000
Read Mode:  ABS
Read Average:      0.1000
Nanometer Interval:      1.0000
Time:      0.0000

  200.0000      1.6340
  201.0000      1.5532
  202.0000      1.5071
  203.0000      1.4576
  204.0000      1.3946
  205.0000      1.3630
  206.0000      1.3142
  207.0000      1.2753
  208.0000      1.2389
  209.0000      1.1953
  210.0000      1.1710
  211.0000      1.1337
  212.0000      1.1109
  213.0000      1.0790
  214.0000      1.0500
  215.0000      1.0278
  216.0000      1.0036
  217.0000      0.9800
  218.0000      0.9584
  219.0000      0.9409
  220.0000      0.9189
  221.0000      0.8981
  222.0000      0.8809
  223.0000      0.8632
  224.0000      0.8465
  225.0000      0.8287
  226.0000      0.8138
  227.0000      0.7976
  228.0000      0.7834
  229.0000      0.7679
  230.0000      0.7511
  231.0000      0.7386
  232.0000      0.7239
  233.0000      0.7092
  234.0000      0.6954
  235.0000      0.6831
  236.0000      0.6720
  237.0000      0.6589
  238.0000      0.6505
  239.0000      0.6404
  240.0000      0.6322
  241.0000      0.6236
  242.0000      0.6165
  243.0000      0.6106
  244.0000      0.6040
  245.0000      0.5988
  246.0000      0.5938
  247.0000      0.5898
  248.0000      0.5846
  249.0000      0.5808
  250.0000      0.5767
  251.0000      0.5734
  252.0000      0.5701
  253.0000      0.5661
  254.0000      0.5622
  255.0000      0.5592
  256.0000      0.5562
  257.0000      0.5529
  258.0000      0.5493
  259.0000      0.5475
  260.0000      0.5430
  261.0000      0.5389
  262.0000      0.5359
  263.0000      0.5315
  264.0000      0.5280
  265.0000      0.5233
  266.0000      0.5195
  267.0000      0.5135
  268.0000      0.5092
  269.0000      0.5039
  270.0000      0.4973
  271.0000      0.4926
  272.0000      0.4866
  273.0000      0.4816
  274.0000      0.4749
  275.0000      0.4699
  276.0000      0.4631
  277.0000      0.4568
  278.0000      0.4512
  279.0000      0.4448
  280.0000      0.4387
  281.0000      0.4320
  282.0000      0.4262
  283.0000      0.4200
  284.0000      0.4122
  285.0000      0.4065
  286.0000      0.3999
  287.0000      0.3942
  288.0000      0.3866
  289.0000      0.3804
  290.0000      0.3744
  291.0000      0.3672
  292.0000      0.3625
  293.0000      0.3557
  294.0000      0.3496
  295.0000      0.3439
  296.0000      0.3382
  297.0000      0.3328
  298.0000      0.3269
  299.0000      0.3229
  300.0000      0.3168
  301.0000      0.3132
  302.0000      0.3095
  303.0000      0.3048
  304.0000      0.2997
  305.0000      0.2967
  306.0000      0.2935
  307.0000      0.2894
  308.0000      0.2862
  309.0000      0.2834
  310.0000      0.2804
  311.0000      0.2772
  312.0000      0.2750
  313.0000      0.2715
  314.0000      0.2681
  315.0000      0.2673
  316.0000      0.2639
  317.0000      0.2619
  318.0000      0.2593
  319.0000      0.2572
  320.0000      0.2555
  321.0000      0.2538
  322.0000      0.2485
  323.0000      0.2465
  324.0000      0.2433
  325.0000      0.2413
  326.0000      0.2389
  327.0000      0.2364
  328.0000      0.2351
  329.0000      0.2327
  330.0000      0.2303
  331.0000      0.2288
  332.0000      0.2271
  333.0000      0.2253
  334.0000      0.2235
  335.0000      0.2219
  336.0000      0.2201
  337.0000      0.2185
  338.0000      0.2170
  339.0000      0.2151
  340.0000      0.2137
  341.0000      0.2120
  342.0000      0.2113
  343.0000      0.2090
  344.0000      0.2072
  345.0000      0.2060
  346.0000      0.2045
  347.0000      0.2033
  348.0000      0.2016
  349.0000      0.2005
  350.0000      0.1991
  351.0000      0.1977
  352.0000      0.1970
  353.0000      0.1949
  354.0000      0.1944
  355.0000      0.1930
  356.0000      0.1926
  357.0000      0.1905
  358.0000      0.1891
  359.0000      0.1889
  360.0000      0.1898
  361.0000      0.1872
  362.0000      0.1859
  363.0000      0.1858
  364.0000      0.1855
  365.0000      0.1833
  366.0000      0.1816
  367.0000      0.1812
  368.0000      0.1805
  369.0000      0.1793
  370.0000      0.1784
  371.0000      0.1765
  372.0000      0.1766
  373.0000      0.1766
  374.0000      0.1761
  375.0000      0.1749
  376.0000      0.1730
  377.0000      0.1740
  378.0000      0.1734
  379.0000      0.1717
  380.0000      0.1721
  381.0000      0.1702
  382.0000      0.1701
  383.0000      0.1693
  384.0000      0.1694
  385.0000      0.1679
  386.0000      0.1659
  387.0000      0.1659
  388.0000      0.1658
  389.0000      0.1656
  390.0000      0.1634
  391.0000      0.1634
  392.0000      0.1627
  393.0000      0.1613
  394.0000      0.1617
  395.0000      0.1599
  396.0000      0.1601
  397.0000      0.1591
  398.0000      0.1583
  399.0000      0.1579
  400.0000      0.1567
  401.0000      0.1569
  402.0000      0.1562
  403.0000      0.1556
  404.0000      0.1551
  405.0000      0.1541
  406.0000      0.1537
  407.0000      0.1533
  408.0000      0.1529
  409.0000      0.1526
  410.0000      0.1521
  411.0000      0.1518
  412.0000      0.1511
  413.0000      0.1511
  414.0000      0.1503
  415.0000      0.1503
  416.0000      0.1496
  417.0000      0.1490
  418.0000      0.1487
  419.0000      0.1485
  420.0000      0.1478
  421.0000      0.1474
  422.0000      0.1469
  423.0000      0.1464
  424.0000      0.1460
  425.0000      0.1455
  426.0000      0.1452
  427.0000      0.1447
  428.0000      0.1445
  429.0000      0.1441
  430.0000      0.1437
  431.0000      0.1434
  432.0000      0.1430
  433.0000      0.1428
  434.0000      0.1426
  435.0000      0.1423
  436.0000      0.1421
  437.0000      0.1417
  438.0000      0.1414
  439.0000      0.1409
  440.0000      0.1406
  441.0000      0.1400
  442.0000      0.1394
  443.0000      0.1388
  444.0000      0.1382
  445.0000      0.1374
  446.0000      0.1366
  447.0000      0.1359
  448.0000      0.1350
  449.0000      0.1341
  450.0000      0.1333
  451.0000      0.1325
  452.0000      0.1316
  453.0000      0.1309
  454.0000      0.1301
  455.0000      0.1294
  456.0000      0.1285
  457.0000      0.1280
  458.0000      0.1274
  459.0000      0.1268
  460.0000      0.1263
  461.0000      0.1258
  462.0000      0.1256
  463.0000      0.1252
  464.0000      0.1248
  465.0000      0.1247
  466.0000      0.1243
  467.0000      0.1240
  468.0000      0.1235
  469.0000      0.1232
  470.0000      0.1226
  471.0000      0.1221
  472.0000      0.1216
  473.0000      0.1210
  474.0000      0.1204
  475.0000      0.1199
  476.0000      0.1193
  477.0000      0.1190
  478.0000      0.1184
  479.0000      0.1181
  480.0000      0.1175
  481.0000      0.1171
  482.0000      0.1167
  483.0000      0.1163
  484.0000      0.1159
  485.0000      0.1154
  486.0000      0.1150
  487.0000      0.1146
  488.0000      0.1142
  489.0000      0.1138
  490.0000      0.1134
  491.0000      0.1131
  492.0000      0.1126
  493.0000      0.1122
  494.0000      0.1119
  495.0000      0.1114
  496.0000      0.1110
  497.0000      0.1105
  498.0000      0.1101
  499.0000      0.1097
  500.0000      0.1091
  501.0000      0.1087
  502.0000      0.1082
  503.0000      0.1077
  504.0000      0.1071
  505.0000      0.1066
  506.0000      0.1061
  507.0000      0.1056
  508.0000      0.1052
  509.0000      0.1047
  510.0000      0.1042
  511.0000      0.1037
  512.0000      0.1032
  513.0000      0.1028
  514.0000      0.1024
  515.0000      0.1019
  516.0000      0.1014
  517.0000      0.1009
  518.0000      0.1005
  519.0000      0.1000
  520.0000      0.0996
  521.0000      0.0991
  522.0000      0.0986
  523.0000      0.0982
  524.0000      0.0978
  525.0000      0.0974
  526.0000      0.0970
  527.0000      0.0965
  528.0000      0.0962
  529.0000      0.0957
  530.0000      0.0953
  531.0000      0.0949
  532.0000      0.0945
  533.0000      0.0942
  534.0000      0.0938
  535.0000      0.0935
  536.0000      0.0932
  537.0000      0.0928
  538.0000      0.0925
  539.0000      0.0921
  540.0000      0.0918
  541.0000      0.0915
  542.0000      0.0911
  543.0000      0.0907
  544.0000      0.0903
  545.0000      0.0900
  546.0000      0.0896
  547.0000      0.0892
  548.0000      0.0888
  549.0000      0.0885
  550.0000      0.0882
  551.0000      0.0879
  552.0000      0.0875
  553.0000      0.0872
  554.0000      0.0869
  555.0000      0.0867
  556.0000      0.0865
  557.0000      0.0865
  558.0000      0.0862
  559.0000      0.0859
  560.0000      0.0857
  561.0000      0.0854
  562.0000      0.0852
  563.0000      0.0849
  564.0000      0.0846
  565.0000      0.0844
  566.0000      0.0840
  567.0000      0.0837
  568.0000      0.0834
  569.0000      0.0831
  570.0000      0.0828
  571.0000      0.0826
  572.0000      0.0823
  573.0000      0.0821
  574.0000      0.0819
  575.0000      0.0817
  576.0000      0.0815
  577.0000      0.0813
  578.0000      0.0812
  579.0000      0.0810
  580.0000      0.0809
  581.0000      0.0807
  582.0000      0.0805
  583.0000      0.0803
  584.0000      0.0802
  585.0000      0.0800
  586.0000      0.0799
  587.0000      0.0797
  588.0000      0.0795
  589.0000      0.0793
  590.0000      0.0791
  591.0000      0.0789
  592.0000      0.0787
  593.0000      0.0785
  594.0000      0.0783
  595.0000      0.0781
  596.0000      0.0780
  597.0000      0.0778
  598.0000      0.0776
  599.0000      0.0774
  600.0000      0.0772
  601.0000      0.0771
  602.0000      0.0770
  603.0000      0.0769
  604.0000      0.0768
  605.0000      0.0767
  606.0000      0.0766
  607.0000      0.0765
  608.0000      0.0765
  609.0000      0.0764
  610.0000      0.0763
  611.0000      0.0763
  612.0000      0.0763
  613.0000      0.0762
  614.0000      0.0762
  615.0000      0.0761
  616.0000      0.0761
  617.0000      0.0760
  618.0000      0.0759
  619.0000      0.0759
  620.0000      0.0758
  621.0000      0.0757
  622.0000      0.0756
  623.0000      0.0754
  624.0000      0.0752
  625.0000      0.0751
  626.0000      0.0750
  627.0000      0.0748
  628.0000      0.0748
  629.0000      0.0747
  630.0000      0.0745
  631.0000      0.0744
  632.0000      0.0743
  633.0000      0.0741
  634.0000      0.0740
  635.0000      0.0739
  636.0000      0.0738
  637.0000      0.0736
  638.0000      0.0734
  639.0000      0.0732
  640.0000      0.0730
  641.0000      0.0728
  642.0000      0.0726
  643.0000      0.0723
  644.0000      0.0720
  645.0000      0.0718
  646.0000      0.0714
  647.0000      0.0712
  648.0000      0.0710
  649.0000      0.0707
  650.0000      0.0705
  651.0000      0.0702
  652.0000      0.0700
  653.0000      0.0698
  654.0000      0.0696
  655.0000      0.0694
  656.0000      0.0692
  657.0000      0.0691
  658.0000      0.0691
  659.0000      0.0690
  660.0000      0.0691
  661.0000      0.0691
  662.0000      0.0693
  663.0000      0.0694
  664.0000      0.0696
  665.0000      0.0698
  666.0000      0.0700
  667.0000      0.0702
  668.0000      0.0704
  669.0000      0.0707
  670.0000      0.0709
  671.0000      0.0711
  672.0000      0.0712
  673.0000      0.0714
  674.0000      0.0715
  675.0000      0.0717
  676.0000      0.0720
  677.0000      0.0722
  678.0000      0.0724
  679.0000      0.0725
  680.0000      0.0726
  681.0000      0.0726
  682.0000      0.0726
  683.0000      0.0724
  684.0000      0.0722
  685.0000      0.0719
  686.0000      0.0715
  687.0000      0.0710
  688.0000      0.0705
  689.0000      0.0701
  690.0000      0.0696
  691.0000      0.0691
  692.0000      0.0685
  693.0000      0.0680
  694.0000      0.0676
  695.0000      0.0671
  696.0000      0.0667
  697.0000      0.0663
  698.0000      0.0659
  699.0000      0.0655
  700.0000      0.0652
  701.0000      0.0648
  702.0000      0.0645
  703.0000      0.0642
  704.0000      0.0639
  705.0000      0.0638
  706.0000      0.0634
  707.0000      0.0633
  708.0000      0.0630
  709.0000      0.0628
  710.0000      0.0626
  711.0000      0.0624
  712.0000      0.0622
  713.0000      0.0621
  714.0000      0.0618
  715.0000      0.0617
  716.0000      0.0615
  717.0000      0.0613
  718.0000      0.0612
  719.0000      0.0610
  720.0000      0.0609
  721.0000      0.0607
  722.0000      0.0605
  723.0000      0.0603
  724.0000      0.0601
  725.0000      0.0600
  726.0000      0.0598
  727.0000      0.0596
  728.0000      0.0595
  729.0000      0.0594
  730.0000      0.0592
  731.0000      0.0590
  732.0000      0.0589
  733.0000      0.0587
  734.0000      0.0586
  735.0000      0.0585
  736.0000      0.0568
  737.0000      0.0567
  738.0000      0.0565
  739.0000      0.0563
  740.0000      0.0560
  741.0000      0.0559
  742.0000      0.0558
  743.0000      0.0555
  744.0000      0.0554
  745.0000      0.0553
  746.0000      0.0551
  747.0000      0.0549
  748.0000      0.0548
  749.0000      0.0546
  750.0000      0.0545
  751.0000      0.0544
  752.0000      0.0542
  753.0000      0.0540
  754.0000      0.0539
  755.0000      0.0537
  756.0000      0.0536
  757.0000      0.0535
  758.0000      0.0533
  759.0000      0.0532
  760.0000      0.0531
  761.0000      0.0530
  762.0000      0.0529
  763.0000      0.0527
  764.0000      0.0526
  765.0000      0.0525
  766.0000      0.0523
  767.0000      0.0522
  768.0000      0.0521
  769.0000      0.0521
  770.0000      0.0519
  771.0000      0.0518
  772.0000      0.0517
  773.0000      0.0516
  774.0000      0.0514
  775.0000      0.0513
  776.0000      0.0512
  777.0000      0.0511
  778.0000      0.0510
  779.0000      0.0509
  780.0000      0.0508
  781.0000      0.0507
  782.0000      0.0507
  783.0000      0.0506
  784.0000      0.0506
  785.0000      0.0505
  786.0000      0.0504
  787.0000      0.0503
  788.0000      0.0502
  789.0000      0.0502
  790.0000      0.0501
  791.0000      0.0501
  792.0000      0.0501
  793.0000      0.0501
  794.0000      0.0499
  795.0000      0.0498
  796.0000      0.0498
  797.0000      0.0497
  798.0000      0.0497
  799.0000      0.0496
  800.0000      0.0496
