Start Wavelength:    200.0000
End Wavelength:    800.0000
Read Mode:  ABS
Read Average:      0.1000
Nanometer Interval:      1.0000
Time:      0.0000

  200.0000     -0.0015
  201.0000     -0.0005
  202.0000      0.0007
  203.0000      0.0007
  204.0000      0.0013
  205.0000      0.0018
  206.0000      0.0018
  207.0000      0.0015
  208.0000      0.0013
  209.0000      0.0010
  210.0000      0.0008
  211.0000      0.0006
  212.0000      0.0007
  213.0000      0.0003
  214.0000      0.0004
  215.0000      0.0001
  216.0000      0.0000
  217.0000     -0.0002
  218.0000     -0.0008
  219.0000     -0.0007
  220.0000     -0.0012
  221.0000     -0.0012
  222.0000     -0.0019
  223.0000     -0.0020
  224.0000     -0.0021
  225.0000     -0.0020
  226.0000     -0.0023
  227.0000     -0.0021
  228.0000     -0.0022
  229.0000     -0.0021
  230.0000     -0.0024
  231.0000     -0.0019
  232.0000     -0.0020
  233.0000     -0.0020
  234.0000     -0.0019
  235.0000     -0.0020
  236.0000     -0.0017
  237.0000     -0.0017
  238.0000     -0.0016
  239.0000     -0.0014
  240.0000     -0.0013
  241.0000     -0.0014
  242.0000     -0.0009
  243.0000     -0.0007
  244.0000     -0.0007
  245.0000     -0.0004
  246.0000      0.0000
  247.0000     -0.0001
  248.0000      0.0003
  249.0000      0.0005
  250.0000      0.0003
  251.0000      0.0007
  252.0000      0.0011
  253.0000      0.0008
  254.0000      0.0009
  255.0000      0.0009
  256.0000      0.0008
  257.0000      0.0012
  258.0000      0.0012
  259.0000      0.0013
  260.0000      0.0011
  261.0000      0.0016
  262.0000      0.0012
  263.0000      0.0015
  264.0000      0.0017
  265.0000      0.0015
  266.0000      0.0013
  267.0000      0.0014
  268.0000      0.0010
  269.0000      0.0010
  270.0000      0.0012
  271.0000      0.0009
  272.0000      0.0012
  273.0000      0.0010
  274.0000      0.0014
  275.0000      0.0011
  276.0000      0.0016
  277.0000      0.0011
  278.0000      0.0015
  279.0000      0.0014
  280.0000      0.0011
  281.0000      0.0010
  282.0000      0.0015
  283.0000      0.0008
  284.0000      0.0013
  285.0000      0.0014
  286.0000      0.0014
  287.0000      0.0015
  288.0000      0.0014
  289.0000      0.0012
  290.0000      0.0015
  291.0000      0.0016
  292.0000      0.0014
  293.0000      0.0015
  294.0000      0.0014
  295.0000      0.0018
  296.0000      0.0012
  297.0000      0.0019
  298.0000      0.0016
  299.0000      0.0018
  300.0000      0.0016
  301.0000      0.0017
  302.0000      0.0012
  303.0000      0.0017
  304.0000      0.0014
  305.0000      0.0015
  306.0000      0.0013
  307.0000      0.0017
  308.0000      0.0015
  309.0000      0.0015
  310.0000      0.0020
  311.0000      0.0020
  312.0000      0.0019
  313.0000      0.0015
  314.0000      0.0017
  315.0000      0.0014
  316.0000      0.0015
  317.0000      0.0010
  318.0000      0.0013
  319.0000      0.0009
  320.0000      0.0019
  321.0000      0.0010
  322.0000      0.0016
  323.0000      0.0016
  324.0000      0.0018
  325.0000      0.0019
  326.0000      0.0014
  327.0000      0.0021
  328.0000      0.0016
  329.0000      0.0018
  330.0000      0.0018
  331.0000      0.0019
  332.0000      0.0013
  333.0000      0.0015
  334.0000      0.0011
  335.0000      0.0016
  336.0000      0.0011
  337.0000      0.0012
  338.0000      0.0016
  339.0000      0.0016
  340.0000      0.0017
  341.0000      0.0016
  342.0000      0.0014
  343.0000      0.0015
  344.0000      0.0013
  345.0000      0.0012
  346.0000      0.0015
  347.0000      0.0012
  348.0000      0.0012
  349.0000      0.0011
  350.0000      0.0014
  351.0000      0.0013
  352.0000      0.0012
  353.0000      0.0011
  354.0000      0.0012
  355.0000      0.0010
  356.0000      0.0010
  357.0000      0.0007
  358.0000      0.0009
  359.0000      0.0007
  360.0000      0.0019
  361.0000      0.0015
  362.0000      0.0024
  363.0000      0.0028
  364.0000      0.0025
  365.0000      0.0017
  366.0000      0.0020
  367.0000      0.0016
  368.0000      0.0021
  369.0000      0.0024
  370.0000      0.0012
  371.0000      0.0013
  372.0000      0.0016
  373.0000      0.0014
  374.0000      0.0022
  375.0000      0.0016
  376.0000      0.0014
  377.0000      0.0012
  378.0000      0.0025
  379.0000      0.0020
  380.0000      0.0011
  381.0000      0.0017
  382.0000      0.0015
  383.0000      0.0013
  384.0000      0.0011
  385.0000      0.0018
  386.0000      0.0015
  387.0000      0.0015
  388.0000      0.0014
  389.0000      0.0014
  390.0000      0.0013
  391.0000      0.0019
  392.0000      0.0015
  393.0000      0.0014
  394.0000      0.0010
  395.0000      0.0015
  396.0000      0.0012
  397.0000      0.0012
  398.0000      0.0013
  399.0000      0.0010
  400.0000      0.0009
  401.0000      0.0009
  402.0000      0.0013
  403.0000      0.0014
  404.0000      0.0015
  405.0000      0.0012
  406.0000      0.0015
  407.0000      0.0014
  408.0000      0.0012
  409.0000      0.0009
  410.0000      0.0010
  411.0000      0.0009
  412.0000      0.0011
  413.0000      0.0007
  414.0000      0.0013
  415.0000      0.0008
  416.0000      0.0001
  417.0000      0.0001
  418.0000      0.0001
  419.0000      0.0003
  420.0000      0.0001
  421.0000      0.0001
  422.0000      0.0001
  423.0000      0.0001
  424.0000      0.0001
  425.0000      0.0001
  426.0000     -0.0001
  427.0000      0.0001
  428.0000      0.0001
  429.0000      0.0001
  430.0000      0.0001
  431.0000     -0.0000
  432.0000     -0.0000
  433.0000     -0.0000
  434.0000     -0.0000
  435.0000     -0.0000
  436.0000     -0.0000
  437.0000     -0.0000
  438.0000     -0.0000
  439.0000     -0.0000
  440.0000     -0.0000
  441.0000     -0.0000
  442.0000     -0.0000
  443.0000     -0.0001
  444.0000     -0.0000
  445.0000     -0.0001
  446.0000     -0.0001
  447.0000     -0.0001
  448.0000     -0.0001
  449.0000     -0.0002
  450.0000     -0.0001
  451.0000     -0.0001
  452.0000     -0.0001
  453.0000     -0.0002
  454.0000     -0.0001
  455.0000     -0.0002
  456.0000     -0.0002
  457.0000     -0.0002
  458.0000     -0.0001
  459.0000     -0.0002
  460.0000     -0.0002
  461.0000     -0.0001
  462.0000     -0.0001
  463.0000     -0.0002
  464.0000     -0.0002
  465.0000     -0.0001
  466.0000     -0.0001
  467.0000     -0.0002
  468.0000     -0.0001
  469.0000     -0.0002
  470.0000     -0.0001
  471.0000     -0.0002
  472.0000     -0.0001
  473.0000     -0.0002
  474.0000     -0.0001
  475.0000     -0.0002
  476.0000     -0.0002
  477.0000     -0.0002
  478.0000     -0.0002
  479.0000     -0.0002
  480.0000     -0.0002
  481.0000     -0.0003
  482.0000     -0.0002
  483.0000     -0.0002
  484.0000     -0.0003
  485.0000     -0.0003
  486.0000     -0.0003
  487.0000     -0.0003
  488.0000     -0.0003
  489.0000     -0.0003
  490.0000     -0.0003
  491.0000     -0.0003
  492.0000     -0.0003
  493.0000     -0.0003
  494.0000     -0.0003
  495.0000     -0.0004
  496.0000     -0.0004
  497.0000     -0.0004
  498.0000     -0.0003
  499.0000     -0.0004
  500.0000     -0.0004
  501.0000     -0.0004
  502.0000     -0.0004
  503.0000     -0.0004
  504.0000     -0.0004
  505.0000     -0.0004
  506.0000     -0.0004
  507.0000     -0.0004
  508.0000     -0.0005
  509.0000     -0.0004
  510.0000     -0.0005
  511.0000     -0.0005
  512.0000     -0.0005
  513.0000     -0.0005
  514.0000     -0.0005
  515.0000     -0.0005
  516.0000     -0.0005
  517.0000     -0.0005
  518.0000     -0.0005
  519.0000     -0.0005
  520.0000     -0.0006
  521.0000     -0.0005
  522.0000     -0.0006
  523.0000     -0.0006
  524.0000     -0.0006
  525.0000     -0.0006
  526.0000     -0.0006
  527.0000     -0.0006
  528.0000     -0.0006
  529.0000     -0.0006
  530.0000     -0.0007
  531.0000     -0.0007
  532.0000     -0.0007
  533.0000     -0.0007
  534.0000     -0.0007
  535.0000     -0.0007
  536.0000     -0.0007
  537.0000     -0.0007
  538.0000     -0.0007
  539.0000     -0.0007
  540.0000     -0.0007
  541.0000     -0.0008
  542.0000     -0.0008
  543.0000     -0.0008
  544.0000     -0.0008
  545.0000     -0.0008
  546.0000     -0.0008
  547.0000     -0.0008
  548.0000     -0.0008
  549.0000     -0.0008
  550.0000     -0.0008
  551.0000     -0.0009
  552.0000     -0.0009
  553.0000     -0.0009
  554.0000     -0.0009
  555.0000     -0.0009
  556.0000     -0.0009
  557.0000     -0.0000
  558.0000     -0.0000
  559.0000     -0.0001
  560.0000     -0.0002
  561.0000     -0.0002
  562.0000     -0.0003
  563.0000     -0.0003
  564.0000     -0.0003
  565.0000     -0.0004
  566.0000     -0.0004
  567.0000     -0.0005
  568.0000     -0.0005
  569.0000     -0.0005
  570.0000     -0.0005
  571.0000     -0.0005
  572.0000     -0.0005
  573.0000     -0.0005
  574.0000     -0.0006
  575.0000     -0.0006
  576.0000     -0.0006
  577.0000     -0.0006
  578.0000     -0.0006
  579.0000     -0.0007
  580.0000     -0.0007
  581.0000     -0.0007
  582.0000     -0.0007
  583.0000     -0.0007
  584.0000     -0.0007
  585.0000     -0.0008
  586.0000     -0.0008
  587.0000     -0.0007
  588.0000     -0.0007
  589.0000     -0.0008
  590.0000     -0.0008
  591.0000     -0.0008
  592.0000     -0.0008
  593.0000     -0.0008
  594.0000     -0.0009
  595.0000     -0.0009
  596.0000     -0.0009
  597.0000     -0.0008
  598.0000     -0.0008
  599.0000     -0.0008
  600.0000     -0.0008
  601.0000     -0.0008
  602.0000     -0.0008
  603.0000     -0.0008
  604.0000     -0.0008
  605.0000     -0.0008
  606.0000     -0.0008
  607.0000     -0.0008
  608.0000     -0.0008
  609.0000     -0.0008
  610.0000     -0.0009
  611.0000     -0.0008
  612.0000     -0.0008
  613.0000     -0.0008
  614.0000     -0.0008
  615.0000     -0.0009
  616.0000     -0.0009
  617.0000     -0.0009
  618.0000     -0.0008
  619.0000     -0.0008
  620.0000     -0.0008
  621.0000     -0.0008
  622.0000     -0.0007
  623.0000     -0.0007
  624.0000     -0.0006
  625.0000     -0.0006
  626.0000     -0.0006
  627.0000     -0.0006
  628.0000     -0.0006
  629.0000     -0.0005
  630.0000     -0.0005
  631.0000     -0.0005
  632.0000     -0.0005
  633.0000     -0.0005
  634.0000     -0.0005
  635.0000     -0.0005
  636.0000     -0.0005
  637.0000     -0.0004
  638.0000     -0.0004
  639.0000     -0.0004
  640.0000     -0.0004
  641.0000     -0.0004
  642.0000     -0.0004
  643.0000     -0.0004
  644.0000     -0.0004
  645.0000     -0.0004
  646.0000     -0.0004
  647.0000     -0.0004
  648.0000     -0.0004
  649.0000     -0.0003
  650.0000     -0.0003
  651.0000     -0.0003
  652.0000     -0.0003
  653.0000     -0.0003
  654.0000     -0.0004
  655.0000     -0.0003
  656.0000     -0.0003
  657.0000     -0.0004
  658.0000     -0.0004
  659.0000     -0.0004
  660.0000     -0.0004
  661.0000     -0.0003
  662.0000     -0.0004
  663.0000     -0.0004
  664.0000     -0.0004
  665.0000     -0.0003
  666.0000     -0.0003
  667.0000     -0.0003
  668.0000     -0.0003
  669.0000     -0.0003
  670.0000     -0.0003
  671.0000     -0.0003
  672.0000     -0.0003
  673.0000     -0.0003
  674.0000     -0.0003
  675.0000     -0.0003
  676.0000     -0.0003
  677.0000     -0.0003
  678.0000     -0.0003
  679.0000     -0.0003
  680.0000     -0.0003
  681.0000     -0.0003
  682.0000     -0.0003
  683.0000     -0.0003
  684.0000     -0.0003
  685.0000     -0.0003
  686.0000     -0.0003
  687.0000     -0.0003
  688.0000     -0.0004
  689.0000     -0.0003
  690.0000     -0.0003
  691.0000     -0.0003
  692.0000     -0.0003
  693.0000     -0.0003
  694.0000     -0.0004
  695.0000     -0.0004
  696.0000     -0.0004
  697.0000     -0.0004
  698.0000     -0.0004
  699.0000     -0.0004
  700.0000     -0.0004
  701.0000     -0.0004
  702.0000     -0.0004
  703.0000     -0.0004
  704.0000     -0.0004
  705.0000     -0.0003
  706.0000     -0.0003
  707.0000     -0.0003
  708.0000     -0.0003
  709.0000     -0.0004
  710.0000     -0.0003
  711.0000     -0.0003
  712.0000     -0.0004
  713.0000     -0.0003
  714.0000     -0.0003
  715.0000     -0.0004
  716.0000     -0.0004
  717.0000     -0.0004
  718.0000     -0.0003
  719.0000     -0.0004
  720.0000     -0.0004
  721.0000     -0.0003
  722.0000     -0.0003
  723.0000     -0.0004
  724.0000     -0.0003
  725.0000     -0.0003
  726.0000     -0.0004
  727.0000     -0.0004
  728.0000     -0.0004
  729.0000     -0.0004
  730.0000     -0.0004
  731.0000     -0.0004
  732.0000     -0.0004
  733.0000     -0.0004
  734.0000     -0.0004
  735.0000     -0.0004
  736.0000     -0.0000
  737.0000     -0.0001
  738.0000     -0.0001
  739.0000     -0.0001
  740.0000     -0.0001
  741.0000     -0.0002
  742.0000     -0.0002
  743.0000     -0.0003
  744.0000     -0.0002
  745.0000     -0.0003
  746.0000     -0.0003
  747.0000     -0.0003
  748.0000     -0.0003
  749.0000     -0.0003
  750.0000     -0.0004
  751.0000     -0.0004
  752.0000     -0.0004
  753.0000     -0.0004
  754.0000     -0.0003
  755.0000     -0.0004
  756.0000     -0.0004
  757.0000     -0.0004
  758.0000     -0.0004
  759.0000     -0.0004
  760.0000     -0.0005
  761.0000     -0.0004
  762.0000     -0.0004
  763.0000     -0.0004
  764.0000     -0.0005
  765.0000     -0.0005
  766.0000     -0.0005
  767.0000     -0.0005
  768.0000     -0.0005
  769.0000     -0.0005
  770.0000     -0.0005
  771.0000     -0.0006
  772.0000     -0.0005
  773.0000     -0.0005
  774.0000     -0.0005
  775.0000     -0.0005
  776.0000     -0.0006
  777.0000     -0.0006
  778.0000     -0.0006
  779.0000     -0.0006
  780.0000     -0.0006
  781.0000     -0.0006
  782.0000     -0.0006
  783.0000     -0.0006
  784.0000     -0.0006
  785.0000     -0.0006
  786.0000     -0.0006
  787.0000     -0.0006
  788.0000     -0.0006
  789.0000     -0.0006
  790.0000     -0.0007
  791.0000     -0.0007
  792.0000     -0.0007
  793.0000     -0.0007
  794.0000     -0.0007
  795.0000     -0.0007
  796.0000     -0.0007
  797.0000     -0.0008
  798.0000     -0.0007
  799.0000     -0.0008
  800.0000     -0.0007
