Start Wavelength:    200.0000
End Wavelength:    800.0000
Read Mode:  ABS
Read Average:      0.1000
Nanometer Interval:      1.0000
Time:      0.0000

  200.0000      2.5630
  201.0000      2.3537
  202.0000      2.3381
  203.0000      2.4282
  204.0000      2.4380
  205.0000      2.5302
  206.0000      2.4505
  207.0000      2.3525
  208.0000      2.2529
  209.0000      2.2653
  210.0000      2.1727
  211.0000      2.0856
  212.0000      2.0311
  213.0000      1.9188
  214.0000      1.8291
  215.0000      1.7202
  216.0000      1.6398
  217.0000      1.5191
  218.0000      1.4121
  219.0000      1.3193
  220.0000      1.2275
  221.0000      1.1235
  222.0000      1.0401
  223.0000      0.9615
  224.0000      0.8881
  225.0000      0.8150
  226.0000      0.7565
  227.0000      0.7032
  228.0000      0.6545
  229.0000      0.6082
  230.0000      0.5715
  231.0000      0.5394
  232.0000      0.5116
  233.0000      0.4840
  234.0000      0.4630
  235.0000      0.4454
  236.0000      0.4294
  237.0000      0.4150
  238.0000      0.4029
  239.0000      0.3933
  240.0000      0.3847
  241.0000      0.3765
  242.0000      0.3713
  243.0000      0.3655
  244.0000      0.3608
  245.0000      0.3565
  246.0000      0.3528
  247.0000      0.3500
  248.0000      0.3461
  249.0000      0.3435
  250.0000      0.3408
  251.0000      0.3390
  252.0000      0.3365
  253.0000      0.3338
  254.0000      0.3318
  255.0000      0.3293
  256.0000      0.3276
  257.0000      0.3259
  258.0000      0.3237
  259.0000      0.3223
  260.0000      0.3196
  261.0000      0.3175
  262.0000      0.3158
  263.0000      0.3133
  264.0000      0.3115
  265.0000      0.3094
  266.0000      0.3069
  267.0000      0.3049
  268.0000      0.3029
  269.0000      0.3011
  270.0000      0.2989
  271.0000      0.2968
  272.0000      0.2952
  273.0000      0.2927
  274.0000      0.2908
  275.0000      0.2880
  276.0000      0.2865
  277.0000      0.2846
  278.0000      0.2820
  279.0000      0.2790
  280.0000      0.2766
  281.0000      0.2741
  282.0000      0.2707
  283.0000      0.2689
  284.0000      0.2661
  285.0000      0.2631
  286.0000      0.2600
  287.0000      0.2580
  288.0000      0.2545
  289.0000      0.2515
  290.0000      0.2490
  291.0000      0.2461
  292.0000      0.2435
  293.0000      0.2411
  294.0000      0.2383
  295.0000      0.2354
  296.0000      0.2329
  297.0000      0.2307
  298.0000      0.2281
  299.0000      0.2260
  300.0000      0.2233
  301.0000      0.2208
  302.0000      0.2182
  303.0000      0.2166
  304.0000      0.2146
  305.0000      0.2117
  306.0000      0.2104
  307.0000      0.2084
  308.0000      0.2061
  309.0000      0.2053
  310.0000      0.2030
  311.0000      0.2009
  312.0000      0.1998
  313.0000      0.1978
  314.0000      0.1956
  315.0000      0.1937
  316.0000      0.1915
  317.0000      0.1903
  318.0000      0.1885
  319.0000      0.1877
  320.0000      0.1859
  321.0000      0.1846
  322.0000      0.1838
  323.0000      0.1823
  324.0000      0.1811
  325.0000      0.1799
  326.0000      0.1780
  327.0000      0.1770
  328.0000      0.1759
  329.0000      0.1744
  330.0000      0.1739
  331.0000      0.1723
  332.0000      0.1713
  333.0000      0.1698
  334.0000      0.1689
  335.0000      0.1681
  336.0000      0.1665
  337.0000      0.1657
  338.0000      0.1648
  339.0000      0.1631
  340.0000      0.1629
  341.0000      0.1613
  342.0000      0.1605
  343.0000      0.1592
  344.0000      0.1582
  345.0000      0.1574
  346.0000      0.1561
  347.0000      0.1547
  348.0000      0.1539
  349.0000      0.1530
  350.0000      0.1519
  351.0000      0.1511
  352.0000      0.1500
  353.0000      0.1491
  354.0000      0.1488
  355.0000      0.1482
  356.0000      0.1475
  357.0000      0.1473
  358.0000      0.1459
  359.0000      0.1437
  360.0000      0.1459
  361.0000      0.1447
  362.0000      0.1420
  363.0000      0.1402
  364.0000      0.1401
  365.0000      0.1397
  366.0000      0.1382
  367.0000      0.1385
  368.0000      0.1376
  369.0000      0.1372
  370.0000      0.1362
  371.0000      0.1360
  372.0000      0.1347
  373.0000      0.1324
  374.0000      0.1343
  375.0000      0.1326
  376.0000      0.1324
  377.0000      0.1313
  378.0000      0.1309
  379.0000      0.1304
  380.0000      0.1305
  381.0000      0.1297
  382.0000      0.1278
  383.0000      0.1269
  384.0000      0.1270
  385.0000      0.1260
  386.0000      0.1254
  387.0000      0.1247
  388.0000      0.1234
  389.0000      0.1235
  390.0000      0.1228
  391.0000      0.1223
  392.0000      0.1211
  393.0000      0.1209
  394.0000      0.1200
  395.0000      0.1194
  396.0000      0.1189
  397.0000      0.1187
  398.0000      0.1176
  399.0000      0.1165
  400.0000      0.1157
  401.0000      0.1153
  402.0000      0.1147
  403.0000      0.1141
  404.0000      0.1139
  405.0000      0.1135
  406.0000      0.1124
  407.0000      0.1119
  408.0000      0.1118
  409.0000      0.1113
  410.0000      0.1109
  411.0000      0.1099
  412.0000      0.1097
  413.0000      0.1094
  414.0000      0.1086
  415.0000      0.1087
  416.0000      0.1061
  417.0000      0.1056
  418.0000      0.1053
  419.0000      0.1048
  420.0000      0.1045
  421.0000      0.1041
  422.0000      0.1038
  423.0000      0.1034
  424.0000      0.1030
  425.0000      0.1026
  426.0000      0.1020
  427.0000      0.1017
  428.0000      0.1013
  429.0000      0.1010
  430.0000      0.1006
  431.0000      0.1002
  432.0000      0.0999
  433.0000      0.0995
  434.0000      0.0993
  435.0000      0.0990
  436.0000      0.0988
  437.0000      0.0985
  438.0000      0.0982
  439.0000      0.0979
  440.0000      0.0975
  441.0000      0.0970
  442.0000      0.0965
  443.0000      0.0962
  444.0000      0.0959
  445.0000      0.0954
  446.0000      0.0950
  447.0000      0.0946
  448.0000      0.0942
  449.0000      0.0938
  450.0000      0.0934
  451.0000      0.0929
  452.0000      0.0925
  453.0000      0.0920
  454.0000      0.0916
  455.0000      0.0912
  456.0000      0.0907
  457.0000      0.0905
  458.0000      0.0902
  459.0000      0.0898
  460.0000      0.0895
  461.0000      0.0893
  462.0000      0.0890
  463.0000      0.0889
  464.0000      0.0888
  465.0000      0.0888
  466.0000      0.0887
  467.0000      0.0887
  468.0000      0.0884
  469.0000      0.0881
  470.0000      0.0878
  471.0000      0.0876
  472.0000      0.0872
  473.0000      0.0869
  474.0000      0.0866
  475.0000      0.0863
  476.0000      0.0860
  477.0000      0.0857
  478.0000      0.0854
  479.0000      0.0852
  480.0000      0.0850
  481.0000      0.0847
  482.0000      0.0845
  483.0000      0.0842
  484.0000      0.0839
  485.0000      0.0837
  486.0000      0.0834
  487.0000      0.0831
  488.0000      0.0829
  489.0000      0.0828
  490.0000      0.0826
  491.0000      0.0824
  492.0000      0.0822
  493.0000      0.0820
  494.0000      0.0818
  495.0000      0.0660
  496.0000      0.0814
  497.0000      0.0812
  498.0000      0.0809
  499.0000      0.0806
  500.0000      0.0804
  501.0000      0.0801
  502.0000      0.0799
  503.0000      0.0797
  504.0000      0.0794
  505.0000      0.0792
  506.0000      0.0789
  507.0000      0.0787
  508.0000      0.0784
  509.0000      0.0781
  510.0000      0.0777
  511.0000      0.0775
  512.0000      0.0772
  513.0000      0.0771
  514.0000      0.0769
  515.0000      0.0769
  516.0000      0.0768
  517.0000      0.0766
  518.0000      0.0765
  519.0000      0.0762
  520.0000      0.0761
  521.0000      0.0763
  522.0000      0.0769
  523.0000      0.0777
  524.0000      0.0783
  525.0000      0.0786
  526.0000      0.0783
  527.0000      0.0781
  528.0000      0.0780
  529.0000      0.0780
  530.0000      0.0778
  531.0000      0.0778
  532.0000      0.0778
  533.0000      0.0778
  534.0000      0.0778
  535.0000      0.0777
  536.0000      0.0776
  537.0000      0.0774
  538.0000      0.0772
  539.0000      0.0771
  540.0000      0.0770
  541.0000      0.0769
  542.0000      0.0767
  543.0000      0.0763
  544.0000      0.0760
  545.0000      0.0757
  546.0000      0.0753
  547.0000      0.0750
  548.0000      0.0746
  549.0000      0.0743
  550.0000      0.0740
  551.0000      0.0737
  552.0000      0.0734
  553.0000      0.0732
  554.0000      0.0729
  555.0000      0.0727
  556.0000      0.0724
  557.0000      0.0688
  558.0000      0.0687
  559.0000      0.0686
  560.0000      0.0685
  561.0000      0.0684
  562.0000      0.0684
  563.0000      0.0683
  564.0000      0.0682
  565.0000      0.0681
  566.0000      0.0680
  567.0000      0.0680
  568.0000      0.0678
  569.0000      0.0677
  570.0000      0.0676
  571.0000      0.0676
  572.0000      0.0675
  573.0000      0.0674
  574.0000      0.0673
  575.0000      0.0672
  576.0000      0.0671
  577.0000      0.0670
  578.0000      0.0669
  579.0000      0.0667
  580.0000      0.0665
  581.0000      0.0663
  582.0000      0.0661
  583.0000      0.0660
  584.0000      0.0659
  585.0000      0.0658
  586.0000      0.0656
  587.0000      0.0655
  588.0000      0.0654
  589.0000      0.0652
  590.0000      0.0651
  591.0000      0.0650
  592.0000      0.0650
  593.0000      0.0649
  594.0000      0.0648
  595.0000      0.0647
  596.0000      0.0646
  597.0000      0.0646
  598.0000      0.0646
  599.0000      0.0645
  600.0000      0.0645
  601.0000      0.0644
  602.0000      0.0643
  603.0000      0.0642
  604.0000      0.0641
  605.0000      0.0640
  606.0000      0.0639
  607.0000      0.0639
  608.0000      0.0637
  609.0000      0.0635
  610.0000      0.0633
  611.0000      0.0632
  612.0000      0.0632
  613.0000      0.0631
  614.0000      0.0629
  615.0000      0.0629
  616.0000      0.0629
  617.0000      0.0628
  618.0000      0.0627
  619.0000      0.0626
  620.0000      0.0625
  621.0000      0.0623
  622.0000      0.0623
  623.0000      0.0621
  624.0000      0.0620
  625.0000      0.0619
  626.0000      0.0618
  627.0000      0.0617
  628.0000      0.0618
  629.0000      0.0619
  630.0000      0.0619
  631.0000      0.0618
  632.0000      0.0618
  633.0000      0.0617
  634.0000      0.0616
  635.0000      0.0615
  636.0000      0.0614
  637.0000      0.0612
  638.0000      0.0612
  639.0000      0.0611
  640.0000      0.0611
  641.0000      0.0611
  642.0000      0.0611
  643.0000      0.0612
  644.0000      0.0613
  645.0000      0.0614
  646.0000      0.0614
  647.0000      0.0613
  648.0000      0.0614
  649.0000      0.0613
  650.0000      0.0615
  651.0000      0.0615
  652.0000      0.0615
  653.0000      0.0615
  654.0000      0.0616
  655.0000      0.0615
  656.0000      0.0614
  657.0000      0.0614
  658.0000      0.0614
  659.0000      0.0614
  660.0000      0.0613
  661.0000      0.0613
  662.0000      0.0612
  663.0000      0.0611
  664.0000      0.0608
  665.0000      0.0606
  666.0000      0.0605
  667.0000      0.0603
  668.0000      0.0602
  669.0000      0.0600
  670.0000      0.0597
  671.0000      0.0595
  672.0000      0.0592
  673.0000      0.0589
  674.0000      0.0587
  675.0000      0.0585
  676.0000      0.0584
  677.0000      0.0582
  678.0000      0.0580
  679.0000      0.0578
  680.0000      0.0575
  681.0000      0.0572
  682.0000      0.0570
  683.0000      0.0568
  684.0000      0.0564
  685.0000      0.0562
  686.0000      0.0559
  687.0000      0.0556
  688.0000      0.0554
  689.0000      0.0552
  690.0000      0.0551
  691.0000      0.0549
  692.0000      0.0548
  693.0000      0.0547
  694.0000      0.0546
  695.0000      0.0545
  696.0000      0.0544
  697.0000      0.0543
  698.0000      0.0543
  699.0000      0.0542
  700.0000      0.0542
  701.0000      0.0541
  702.0000      0.0540
  703.0000      0.0540
  704.0000      0.0540
  705.0000      0.0540
  706.0000      0.0539
  707.0000      0.0539
  708.0000      0.0540
  709.0000      0.0540
  710.0000      0.0539
  711.0000      0.0539
  712.0000      0.0539
  713.0000      0.0539
  714.0000      0.0539
  715.0000      0.0538
  716.0000      0.0539
  717.0000      0.0539
  718.0000      0.0539
  719.0000      0.0539
  720.0000      0.0538
  721.0000      0.0537
  722.0000      0.0537
  723.0000      0.0537
  724.0000      0.0538
  725.0000      0.0538
  726.0000      0.0536
  727.0000      0.0535
  728.0000      0.0535
  729.0000      0.0535
  730.0000      0.0535
  731.0000      0.0535
  732.0000      0.0534
  733.0000      0.0532
  734.0000      0.0530
  735.0000      0.0529
  736.0000      0.0500
  737.0000      0.0499
  738.0000      0.0499
  739.0000      0.0497
  740.0000      0.0496
  741.0000      0.0495
  742.0000      0.0494
  743.0000      0.0492
  744.0000      0.0491
  745.0000      0.0490
  746.0000      0.0490
  747.0000      0.0489
  748.0000      0.0488
  749.0000      0.0487
  750.0000      0.0486
  751.0000      0.0486
  752.0000      0.0485
  753.0000      0.0485
  754.0000      0.0484
  755.0000      0.0484
  756.0000      0.0484
  757.0000      0.0484
  758.0000      0.0482
  759.0000      0.0480
  760.0000      0.0480
  761.0000      0.0479
  762.0000      0.0478
  763.0000      0.0477
  764.0000      0.0477
  765.0000      0.0476
  766.0000      0.0474
  767.0000      0.0473
  768.0000      0.0471
  769.0000      0.0470
  770.0000      0.0469
  771.0000      0.0468
  772.0000      0.0468
  773.0000      0.0467
  774.0000      0.0467
  775.0000      0.0467
  776.0000      0.0466
  777.0000      0.0465
  778.0000      0.0465
  779.0000      0.0465
  780.0000      0.0464
  781.0000      0.0465
  782.0000      0.0465
  783.0000      0.0464
  784.0000      0.0464
  785.0000      0.0464
  786.0000      0.0464
  787.0000      0.0463
  788.0000      0.0463
  789.0000      0.0463
  790.0000      0.0462
  791.0000      0.0463
  792.0000      0.0463
  793.0000      0.0463
  794.0000      0.0463
  795.0000      0.0462
  796.0000      0.0461
  797.0000      0.0460
  798.0000      0.0460
  799.0000      0.0459
  800.0000      0.0458
