Start Wavelength:    200.0000
End Wavelength:    800.0000
Read Mode:  ABS
Read Average:      0.1000
Nanometer Interval:      1.0000
Time:      0.0000

  200.0000      1.5667
  201.0000      1.4545
  202.0000      1.4248
  203.0000      1.3610
  204.0000      1.3014
  205.0000      1.2565
  206.0000      1.2200
  207.0000      1.1843
  208.0000      1.1493
  209.0000      1.1165
  210.0000      1.0834
  211.0000      1.0582
  212.0000      1.0330
  213.0000      1.0077
  214.0000      0.9866
  215.0000      0.9672
  216.0000      0.9454
  217.0000      0.9257
  218.0000      0.9077
  219.0000      0.8918
  220.0000      0.8752
  221.0000      0.8564
  222.0000      0.8429
  223.0000      0.8272
  224.0000      0.8143
  225.0000      0.7985
  226.0000      0.7859
  227.0000      0.7719
  228.0000      0.7613
  229.0000      0.7454
  230.0000      0.7341
  231.0000      0.7215
  232.0000      0.7093
  233.0000      0.6957
  234.0000      0.6855
  235.0000      0.6735
  236.0000      0.6644
  237.0000      0.6530
  238.0000      0.6444
  239.0000      0.6352
  240.0000      0.6282
  241.0000      0.6195
  242.0000      0.6140
  243.0000      0.6072
  244.0000      0.6020
  245.0000      0.5955
  246.0000      0.5920
  247.0000      0.5870
  248.0000      0.5832
  249.0000      0.5799
  250.0000      0.5761
  251.0000      0.5728
  252.0000      0.5698
  253.0000      0.5655
  254.0000      0.5621
  255.0000      0.5586
  256.0000      0.5557
  257.0000      0.5518
  258.0000      0.5486
  259.0000      0.5449
  260.0000      0.5415
  261.0000      0.5384
  262.0000      0.5353
  263.0000      0.5310
  264.0000      0.5273
  265.0000      0.5225
  266.0000      0.5192
  267.0000      0.5153
  268.0000      0.5105
  269.0000      0.5065
  270.0000      0.5002
  271.0000      0.4976
  272.0000      0.4919
  273.0000      0.4876
  274.0000      0.4824
  275.0000      0.4781
  276.0000      0.4729
  277.0000      0.4678
  278.0000      0.4620
  279.0000      0.4569
  280.0000      0.4510
  281.0000      0.4464
  282.0000      0.4396
  283.0000      0.4346
  284.0000      0.4279
  285.0000      0.4233
  286.0000      0.4162
  287.0000      0.4125
  288.0000      0.4053
  289.0000      0.4004
  290.0000      0.3935
  291.0000      0.3876
  292.0000      0.3833
  293.0000      0.3776
  294.0000      0.3721
  295.0000      0.3657
  296.0000      0.3615
  297.0000      0.3564
  298.0000      0.3514
  299.0000      0.3463
  300.0000      0.3420
  301.0000      0.3374
  302.0000      0.3340
  303.0000      0.3299
  304.0000      0.3251
  305.0000      0.3226
  306.0000      0.3186
  307.0000      0.3159
  308.0000      0.3129
  309.0000      0.3084
  310.0000      0.3069
  311.0000      0.3027
  312.0000      0.3004
  313.0000      0.2970
  314.0000      0.2955
  315.0000      0.2913
  316.0000      0.2903
  317.0000      0.2866
  318.0000      0.2846
  319.0000      0.2836
  320.0000      0.2805
  321.0000      0.2800
  322.0000      0.2758
  323.0000      0.2742
  324.0000      0.2719
  325.0000      0.2702
  326.0000      0.2685
  327.0000      0.2663
  328.0000      0.2638
  329.0000      0.2618
  330.0000      0.2599
  331.0000      0.2584
  332.0000      0.2565
  333.0000      0.2547
  334.0000      0.2530
  335.0000      0.2513
  336.0000      0.2495
  337.0000      0.2480
  338.0000      0.2468
  339.0000      0.2448
  340.0000      0.2439
  341.0000      0.2411
  342.0000      0.2408
  343.0000      0.2386
  344.0000      0.2379
  345.0000      0.2360
  346.0000      0.2351
  347.0000      0.2334
  348.0000      0.2321
  349.0000      0.2315
  350.0000      0.2301
  351.0000      0.2292
  352.0000      0.2282
  353.0000      0.2271
  354.0000      0.2263
  355.0000      0.2254
  356.0000      0.2254
  357.0000      0.2261
  358.0000      0.2252
  359.0000      0.2243
  360.0000      0.2218
  361.0000      0.2205
  362.0000      0.2193
  363.0000      0.2196
  364.0000      0.2192
  365.0000      0.2177
  366.0000      0.2171
  367.0000      0.2179
  368.0000      0.2159
  369.0000      0.2147
  370.0000      0.2135
  371.0000      0.2131
  372.0000      0.2121
  373.0000      0.2118
  374.0000      0.2109
  375.0000      0.2098
  376.0000      0.2084
  377.0000      0.2067
  378.0000      0.2070
  379.0000      0.2066
  380.0000      0.2066
  381.0000      0.2049
  382.0000      0.2053
  383.0000      0.2030
  384.0000      0.2042
  385.0000      0.2019
  386.0000      0.2018
  387.0000      0.2010
  388.0000      0.2009
  389.0000      0.1995
  390.0000      0.1987
  391.0000      0.1976
  392.0000      0.1968
  393.0000      0.1970
  394.0000      0.1959
  395.0000      0.1954
  396.0000      0.1949
  397.0000      0.1948
  398.0000      0.1933
  399.0000      0.1932
  400.0000      0.1918
  401.0000      0.1928
  402.0000      0.1914
  403.0000      0.1917
  404.0000      0.1906
  405.0000      0.1901
  406.0000      0.1889
  407.0000      0.1891
  408.0000      0.1891
  409.0000      0.1882
  410.0000      0.1882
  411.0000      0.1872
  412.0000      0.1878
  413.0000      0.1871
  414.0000      0.1869
  415.0000      0.1867
  416.0000      0.1855
  417.0000      0.1850
  418.0000      0.1845
  419.0000      0.1838
  420.0000      0.1835
  421.0000      0.1828
  422.0000      0.1822
  423.0000      0.1819
  424.0000      0.1814
  425.0000      0.1809
  426.0000      0.1804
  427.0000      0.1802
  428.0000      0.1799
  429.0000      0.1797
  430.0000      0.1795
  431.0000      0.1792
  432.0000      0.1789
  433.0000      0.1786
  434.0000      0.1785
  435.0000      0.1783
  436.0000      0.1781
  437.0000      0.1778
  438.0000      0.1775
  439.0000      0.1771
  440.0000      0.1767
  441.0000      0.1762
  442.0000      0.1757
  443.0000      0.1750
  444.0000      0.1743
  445.0000      0.1736
  446.0000      0.1728
  447.0000      0.1721
  448.0000      0.1712
  449.0000      0.1707
  450.0000      0.1698
  451.0000      0.1691
  452.0000      0.1681
  453.0000      0.1674
  454.0000      0.1666
  455.0000      0.1658
  456.0000      0.1651
  457.0000      0.1644
  458.0000      0.1637
  459.0000      0.1632
  460.0000      0.1625
  461.0000      0.1621
  462.0000      0.1616
  463.0000      0.1610
  464.0000      0.1606
  465.0000      0.1601
  466.0000      0.1597
  467.0000      0.1591
  468.0000      0.1586
  469.0000      0.1581
  470.0000      0.1577
  471.0000      0.1572
  472.0000      0.1565
  473.0000      0.1560
  474.0000      0.1552
  475.0000      0.1547
  476.0000      0.1541
  477.0000      0.1535
  478.0000      0.1530
  479.0000      0.1524
  480.0000      0.1519
  481.0000      0.1515
  482.0000      0.1514
  483.0000      0.1513
  484.0000      0.1511
  485.0000      0.1509
  486.0000      0.1507
  487.0000      0.1504
  488.0000      0.1501
  489.0000      0.1497
  490.0000      0.1493
  491.0000      0.1490
  492.0000      0.1486
  493.0000      0.1482
  494.0000      0.1477
  495.0000      0.1473
  496.0000      0.1468
  497.0000      0.1463
  498.0000      0.1458
  499.0000      0.1452
  500.0000      0.1446
  501.0000      0.1440
  502.0000      0.1435
  503.0000      0.1429
  504.0000      0.1423
  505.0000      0.1417
  506.0000      0.1409
  507.0000      0.1402
  508.0000      0.1393
  509.0000      0.1384
  510.0000      0.1374
  511.0000      0.1366
  512.0000      0.1358
  513.0000      0.1350
  514.0000      0.1343
  515.0000      0.1336
  516.0000      0.1330
  517.0000      0.1324
  518.0000      0.1319
  519.0000      0.1313
  520.0000      0.1309
  521.0000      0.1304
  522.0000      0.1300
  523.0000      0.1294
  524.0000      0.1287
  525.0000      0.1283
  526.0000      0.1280
  527.0000      0.1277
  528.0000      0.1275
  529.0000      0.1273
  530.0000      0.1271
  531.0000      0.1270
  532.0000      0.1268
  533.0000      0.1266
  534.0000      0.1265
  535.0000      0.1263
  536.0000      0.1261
  537.0000      0.1259
  538.0000      0.1258
  539.0000      0.1256
  540.0000      0.1255
  541.0000      0.1254
  542.0000      0.1252
  543.0000      0.1249
  544.0000      0.1246
  545.0000      0.1244
  546.0000      0.1240
  547.0000      0.1232
  548.0000      0.1226
  549.0000      0.1224
  550.0000      0.1223
  551.0000      0.1221
  552.0000      0.1219
  553.0000      0.1216
  554.0000      0.1212
  555.0000      0.1210
  556.0000      0.1208
  557.0000      0.1201
  558.0000      0.1197
  559.0000      0.1193
  560.0000      0.1189
  561.0000      0.1186
  562.0000      0.1183
  563.0000      0.1180
  564.0000      0.1175
  565.0000      0.1171
  566.0000      0.1168
  567.0000      0.1167
  568.0000      0.1165
  569.0000      0.1163
  570.0000      0.1161
  571.0000      0.1159
  572.0000      0.1157
  573.0000      0.1157
  574.0000      0.1155
  575.0000      0.1153
  576.0000      0.1151
  577.0000      0.1148
  578.0000      0.1147
  579.0000      0.1147
  580.0000      0.1146
  581.0000      0.1145
  582.0000      0.1142
  583.0000      0.1139
  584.0000      0.1134
  585.0000      0.1131
  586.0000      0.1129
  587.0000      0.1129
  588.0000      0.1129
  589.0000      0.1130
  590.0000      0.1132
  591.0000      0.1132
  592.0000      0.1133
  593.0000      0.1134
  594.0000      0.1137
  595.0000      0.1140
  596.0000      0.1141
  597.0000      0.1140
  598.0000      0.1138
  599.0000      0.1137
  600.0000      0.1136
  601.0000      0.1136
  602.0000      0.1137
  603.0000      0.1138
  604.0000      0.1139
  605.0000      0.1138
  606.0000      0.1138
  607.0000      0.1139
  608.0000      0.1140
  609.0000      0.1139
  610.0000      0.1137
  611.0000      0.1136
  612.0000      0.1137
  613.0000      0.1137
  614.0000      0.1138
  615.0000      0.1137
  616.0000      0.1137
  617.0000      0.1135
  618.0000      0.1129
  619.0000      0.1121
  620.0000      0.1114
  621.0000      0.1107
  622.0000      0.1104
  623.0000      0.1102
  624.0000      0.1099
  625.0000      0.1097
  626.0000      0.1096
  627.0000      0.1097
  628.0000      0.1097
  629.0000      0.1095
  630.0000      0.1092
  631.0000      0.1089
  632.0000      0.1083
  633.0000      0.1080
  634.0000      0.1076
  635.0000      0.1069
  636.0000      0.1060
  637.0000      0.1050
  638.0000      0.1040
  639.0000      0.1036
  640.0000      0.1033
  641.0000      0.1028
  642.0000      0.1023
  643.0000      0.1019
  644.0000      0.1014
  645.0000      0.1012
  646.0000      0.1007
  647.0000      0.1003
  648.0000      0.1001
  649.0000      0.0999
  650.0000      0.0996
  651.0000      0.0995
  652.0000      0.0991
  653.0000      0.0988
  654.0000      0.0984
  655.0000      0.0980
  656.0000      0.0977
  657.0000      0.0974
  658.0000      0.0974
  659.0000      0.0974
  660.0000      0.0975
  661.0000      0.0975
  662.0000      0.0975
  663.0000      0.0977
  664.0000      0.0979
  665.0000      0.0981
  666.0000      0.0983
  667.0000      0.0985
  668.0000      0.0988
  669.0000      0.0991
  670.0000      0.0993
  671.0000      0.0995
  672.0000      0.0996
  673.0000      0.0997
  674.0000      0.0997
  675.0000      0.0995
  676.0000      0.0994
  677.0000      0.0994
  678.0000      0.0994
  679.0000      0.0994
  680.0000      0.0993
  681.0000      0.0991
  682.0000      0.0989
  683.0000      0.0985
  684.0000      0.0979
  685.0000      0.0973
  686.0000      0.0966
  687.0000      0.0959
  688.0000      0.0951
  689.0000      0.0945
  690.0000      0.0939
  691.0000      0.0933
  692.0000      0.0926
  693.0000      0.0921
  694.0000      0.0917
  695.0000      0.0914
  696.0000      0.0911
  697.0000      0.0908
  698.0000      0.0906
  699.0000      0.0902
  700.0000      0.0900
  701.0000      0.0900
  702.0000      0.0898
  703.0000      0.0897
  704.0000      0.0895
  705.0000      0.0894
  706.0000      0.0893
  707.0000      0.0892
  708.0000      0.0892
  709.0000      0.0890
  710.0000      0.0889
  711.0000      0.0889
  712.0000      0.0888
  713.0000      0.0884
  714.0000      0.0881
  715.0000      0.0880
  716.0000      0.0879
  717.0000      0.0877
  718.0000      0.0874
  719.0000      0.0872
  720.0000      0.0870
  721.0000      0.0866
  722.0000      0.0862
  723.0000      0.0860
  724.0000      0.0859
  725.0000      0.0856
  726.0000      0.0855
  727.0000      0.0853
  728.0000      0.0851
  729.0000      0.0847
  730.0000      0.0842
  731.0000      0.0839
  732.0000      0.0835
  733.0000      0.0831
  734.0000      0.0827
  735.0000      0.0825
  736.0000      0.0804
  737.0000      0.0801
  738.0000      0.0798
  739.0000      0.0795
  740.0000      0.0791
  741.0000      0.0788
  742.0000      0.0786
  743.0000      0.0783
  744.0000      0.0780
  745.0000      0.0778
  746.0000      0.0777
  747.0000      0.0775
  748.0000      0.0773
  749.0000      0.0772
  750.0000      0.0771
  751.0000      0.0769
  752.0000      0.0767
  753.0000      0.0765
  754.0000      0.0764
  755.0000      0.0763
  756.0000      0.0762
  757.0000      0.0762
  758.0000      0.0763
  759.0000      0.0764
  760.0000      0.0766
  761.0000      0.0767
  762.0000      0.0769
  763.0000      0.0770
  764.0000      0.0771
  765.0000      0.0771
  766.0000      0.0772
  767.0000      0.0772
  768.0000      0.0773
  769.0000      0.0774
  770.0000      0.0774
  771.0000      0.0774
  772.0000      0.0774
  773.0000      0.0775
  774.0000      0.0774
  775.0000      0.0773
  776.0000      0.0773
  777.0000      0.0772
  778.0000      0.0771
  779.0000      0.0769
  780.0000      0.0768
  781.0000      0.0769
  782.0000      0.0769
  783.0000      0.0769
  784.0000      0.0768
  785.0000      0.0768
  786.0000      0.0767
  787.0000      0.0766
  788.0000      0.0766
  789.0000      0.0765
  790.0000      0.0763
  791.0000      0.0763
  792.0000      0.0762
  793.0000      0.0761
  794.0000      0.0760
  795.0000      0.0760
  796.0000      0.0759
  797.0000      0.0759
  798.0000      0.0758
  799.0000      0.0757
  800.0000      0.0755
