Start Wavelength:    200.0000
End Wavelength:    800.0000
Read Mode:  ABS
Read Average:      0.1000
Nanometer Interval:      1.0000
Time:      0.0000

  200.0000      0.5676
  201.0000      0.5210
  202.0000      0.4963
  203.0000      0.4766
  204.0000      0.4532
  205.0000      0.4375
  206.0000      0.4219
  207.0000      0.4088
  208.0000      0.3966
  209.0000      0.3846
  210.0000      0.3757
  211.0000      0.3657
  212.0000      0.3564
  213.0000      0.3475
  214.0000      0.3399
  215.0000      0.3321
  216.0000      0.3249
  217.0000      0.3179
  218.0000      0.3123
  219.0000      0.3068
  220.0000      0.3018
  221.0000      0.2958
  222.0000      0.2911
  223.0000      0.2868
  224.0000      0.2818
  225.0000      0.2776
  226.0000      0.2730
  227.0000      0.2692
  228.0000      0.2653
  229.0000      0.2609
  230.0000      0.2572
  231.0000      0.2533
  232.0000      0.2497
  233.0000      0.2455
  234.0000      0.2424
  235.0000      0.2393
  236.0000      0.2360
  237.0000      0.2329
  238.0000      0.2301
  239.0000      0.2270
  240.0000      0.2250
  241.0000      0.2222
  242.0000      0.2200
  243.0000      0.2183
  244.0000      0.2165
  245.0000      0.2145
  246.0000      0.2127
  247.0000      0.2112
  248.0000      0.2096
  249.0000      0.2082
  250.0000      0.2072
  251.0000      0.2062
  252.0000      0.2052
  253.0000      0.2041
  254.0000      0.2026
  255.0000      0.2020
  256.0000      0.2005
  257.0000      0.1989
  258.0000      0.1988
  259.0000      0.1975
  260.0000      0.1962
  261.0000      0.1951
  262.0000      0.1939
  263.0000      0.1921
  264.0000      0.1911
  265.0000      0.1901
  266.0000      0.1883
  267.0000      0.1868
  268.0000      0.1858
  269.0000      0.1837
  270.0000      0.1829
  271.0000      0.1809
  272.0000      0.1793
  273.0000      0.1783
  274.0000      0.1762
  275.0000      0.1751
  276.0000      0.1731
  277.0000      0.1716
  278.0000      0.1694
  279.0000      0.1677
  280.0000      0.1666
  281.0000      0.1646
  282.0000      0.1629
  283.0000      0.1609
  284.0000      0.1589
  285.0000      0.1574
  286.0000      0.1555
  287.0000      0.1539
  288.0000      0.1520
  289.0000      0.1495
  290.0000      0.1487
  291.0000      0.1463
  292.0000      0.1444
  293.0000      0.1428
  294.0000      0.1411
  295.0000      0.1396
  296.0000      0.1379
  297.0000      0.1369
  298.0000      0.1346
  299.0000      0.1336
  300.0000      0.1324
  301.0000      0.1307
  302.0000      0.1298
  303.0000      0.1292
  304.0000      0.1270
  305.0000      0.1267
  306.0000      0.1254
  307.0000      0.1240
  308.0000      0.1235
  309.0000      0.1226
  310.0000      0.1211
  311.0000      0.1202
  312.0000      0.1195
  313.0000      0.1177
  314.0000      0.1170
  315.0000      0.1164
  316.0000      0.1151
  317.0000      0.1148
  318.0000      0.1142
  319.0000      0.1125
  320.0000      0.1121
  321.0000      0.1116
  322.0000      0.1116
  323.0000      0.1109
  324.0000      0.1103
  325.0000      0.1096
  326.0000      0.1085
  327.0000      0.1083
  328.0000      0.1076
  329.0000      0.1071
  330.0000      0.1061
  331.0000      0.1053
  332.0000      0.1050
  333.0000      0.1046
  334.0000      0.1038
  335.0000      0.1032
  336.0000      0.1032
  337.0000      0.1026
  338.0000      0.1020
  339.0000      0.1017
  340.0000      0.1010
  341.0000      0.1005
  342.0000      0.1007
  343.0000      0.0995
  344.0000      0.0994
  345.0000      0.0990
  346.0000      0.0981
  347.0000      0.0976
  348.0000      0.0972
  349.0000      0.0965
  350.0000      0.0962
  351.0000      0.0959
  352.0000      0.0952
  353.0000      0.0946
  354.0000      0.0946
  355.0000      0.0936
  356.0000      0.0937
  357.0000      0.0923
  358.0000      0.0917
  359.0000      0.0903
  360.0000      0.0913
  361.0000      0.0899
  362.0000      0.0907
  363.0000      0.0900
  364.0000      0.0891
  365.0000      0.0887
  366.0000      0.0891
  367.0000      0.0880
  368.0000      0.0884
  369.0000      0.0873
  370.0000      0.0879
  371.0000      0.0865
  372.0000      0.0875
  373.0000      0.0864
  374.0000      0.0853
  375.0000      0.0869
  376.0000      0.0857
  377.0000      0.0855
  378.0000      0.0852
  379.0000      0.0841
  380.0000      0.0843
  381.0000      0.0838
  382.0000      0.0834
  383.0000      0.0834
  384.0000      0.0826
  385.0000      0.0820
  386.0000      0.0826
  387.0000      0.0823
  388.0000      0.0815
  389.0000      0.0819
  390.0000      0.0816
  391.0000      0.0812
  392.0000      0.0816
  393.0000      0.0807
  394.0000      0.0804
  395.0000      0.0801
  396.0000      0.0801
  397.0000      0.0800
  398.0000      0.0797
  399.0000      0.0798
  400.0000      0.0795
  401.0000      0.0795
  402.0000      0.0790
  403.0000      0.0788
  404.0000      0.0791
  405.0000      0.0780
  406.0000      0.0782
  407.0000      0.0784
  408.0000      0.0777
  409.0000      0.0782
  410.0000      0.0781
  411.0000      0.0782
  412.0000      0.0778
  413.0000      0.0783
  414.0000      0.0779
  415.0000      0.0778
  416.0000      0.0793
  417.0000      0.0792
  418.0000      0.0790
  419.0000      0.0787
  420.0000      0.0787
  421.0000      0.0785
  422.0000      0.0783
  423.0000      0.0781
  424.0000      0.0781
  425.0000      0.0778
  426.0000      0.0778
  427.0000      0.0778
  428.0000      0.0775
  429.0000      0.0776
  430.0000      0.0775
  431.0000      0.0773
  432.0000      0.0774
  433.0000      0.0774
  434.0000      0.0775
  435.0000      0.0776
  436.0000      0.0776
  437.0000      0.0775
  438.0000      0.0774
  439.0000      0.0771
  440.0000      0.0768
  441.0000      0.0766
  442.0000      0.0764
  443.0000      0.0761
  444.0000      0.0759
  445.0000      0.0754
  446.0000      0.0751
  447.0000      0.0747
  448.0000      0.0743
  449.0000      0.0739
  450.0000      0.0734
  451.0000      0.0730
  452.0000      0.0726
  453.0000      0.0722
  454.0000      0.0718
  455.0000      0.0714
  456.0000      0.0711
  457.0000      0.0707
  458.0000      0.0706
  459.0000      0.0704
  460.0000      0.0703
  461.0000      0.0703
  462.0000      0.0703
  463.0000      0.0702
  464.0000      0.0702
  465.0000      0.0702
  466.0000      0.0700
  467.0000      0.0699
  468.0000      0.0696
  469.0000      0.0695
  470.0000      0.0692
  471.0000      0.0689
  472.0000      0.0687
  473.0000      0.0685
  474.0000      0.0683
  475.0000      0.0681
  476.0000      0.0679
  477.0000      0.0677
  478.0000      0.0675
  479.0000      0.0673
  480.0000      0.0670
  481.0000      0.0669
  482.0000      0.0667
  483.0000      0.0665
  484.0000      0.0663
  485.0000      0.0661
  486.0000      0.0659
  487.0000      0.0657
  488.0000      0.0655
  489.0000      0.0653
  490.0000      0.0651
  491.0000      0.0649
  492.0000      0.0647
  493.0000      0.0645
  494.0000      0.0643
  495.0000      0.0641
  496.0000      0.0639
  497.0000      0.0638
  498.0000      0.0636
  499.0000      0.0633
  500.0000      0.0632
  501.0000      0.0629
  502.0000      0.0627
  503.0000      0.0624
  504.0000      0.0622
  505.0000      0.0620
  506.0000      0.0617
  507.0000      0.0616
  508.0000      0.0613
  509.0000      0.0611
  510.0000      0.0609
  511.0000      0.0606
  512.0000      0.0603
  513.0000      0.0601
  514.0000      0.0599
  515.0000      0.0597
  516.0000      0.0595
  517.0000      0.0592
  518.0000      0.0590
  519.0000      0.0588
  520.0000      0.0586
  521.0000      0.0584
  522.0000      0.0582
  523.0000      0.0580
  524.0000      0.0577
  525.0000      0.0575
  526.0000      0.0573
  527.0000      0.0571
  528.0000      0.0569
  529.0000      0.0567
  530.0000      0.0565
  531.0000      0.0562
  532.0000      0.0559
  533.0000      0.0557
  534.0000      0.0556
  535.0000      0.0554
  536.0000      0.0553
  537.0000      0.0551
  538.0000      0.0550
  539.0000      0.0549
  540.0000      0.0548
  541.0000      0.0547
  542.0000      0.0545
  543.0000      0.0544
  544.0000      0.0542
  545.0000      0.0541
  546.0000      0.0540
  547.0000      0.0538
  548.0000      0.0537
  549.0000      0.0535
  550.0000      0.0534
  551.0000      0.0533
  552.0000      0.0532
  553.0000      0.0531
  554.0000      0.0530
  555.0000      0.0529
  556.0000      0.0529
  557.0000      0.0535
  558.0000      0.0534
  559.0000      0.0533
  560.0000      0.0532
  561.0000      0.0531
  562.0000      0.0531
  563.0000      0.0530
  564.0000      0.0528
  565.0000      0.0527
  566.0000      0.0525
  567.0000      0.0524
  568.0000      0.0523
  569.0000      0.0521
  570.0000      0.0521
  571.0000      0.0520
  572.0000      0.0520
  573.0000      0.0520
  574.0000      0.0520
  575.0000      0.0520
  576.0000      0.0520
  577.0000      0.0520
  578.0000      0.0519
  579.0000      0.0519
  580.0000      0.0519
  581.0000      0.0519
  582.0000      0.0518
  583.0000      0.0519
  584.0000      0.0519
  585.0000      0.0518
  586.0000      0.0518
  587.0000      0.0518
  588.0000      0.0518
  589.0000      0.0518
  590.0000      0.0518
  591.0000      0.0517
  592.0000      0.0518
  593.0000      0.0518
  594.0000      0.0518
  595.0000      0.0518
  596.0000      0.0517
  597.0000      0.0516
  598.0000      0.0515
  599.0000      0.0514
  600.0000      0.0513
  601.0000      0.0512
  602.0000      0.0510
  603.0000      0.0506
  604.0000      0.0503
  605.0000      0.0500
  606.0000      0.0499
  607.0000      0.0498
  608.0000      0.0497
  609.0000      0.0497
  610.0000      0.0497
  611.0000      0.0497
  612.0000      0.0498
  613.0000      0.0499
  614.0000      0.0501
  615.0000      0.0503
  616.0000      0.0504
  617.0000      0.0506
  618.0000      0.0507
  619.0000      0.0509
  620.0000      0.0510
  621.0000      0.0511
  622.0000      0.0511
  623.0000      0.0512
  624.0000      0.0512
  625.0000      0.0512
  626.0000      0.0512
  627.0000      0.0511
  628.0000      0.0511
  629.0000      0.0510
  630.0000      0.0508
  631.0000      0.0508
  632.0000      0.0508
  633.0000      0.0509
  634.0000      0.0509
  635.0000      0.0508
  636.0000      0.0508
  637.0000      0.0509
  638.0000      0.0508
  639.0000      0.0507
  640.0000      0.0505
  641.0000      0.0506
  642.0000      0.0506
  643.0000      0.0505
  644.0000      0.0504
  645.0000      0.0503
  646.0000      0.0503
  647.0000      0.0502
  648.0000      0.0500
  649.0000      0.0499
  650.0000      0.0500
  651.0000      0.0500
  652.0000      0.0497
  653.0000      0.0494
  654.0000      0.0495
  655.0000      0.0497
  656.0000      0.0499
  657.0000      0.0497
  658.0000      0.0495
  659.0000      0.0496
  660.0000      0.0499
  661.0000      0.0498
  662.0000      0.0496
  663.0000      0.0494
  664.0000      0.0494
  665.0000      0.0496
  666.0000      0.0496
  667.0000      0.0495
  668.0000      0.0494
  669.0000      0.0495
  670.0000      0.0495
  671.0000      0.0495
  672.0000      0.0494
  673.0000      0.0494
  674.0000      0.0494
  675.0000      0.0493
  676.0000      0.0492
  677.0000      0.0491
  678.0000      0.0491
  679.0000      0.0489
  680.0000      0.0488
  681.0000      0.0487
  682.0000      0.0486
  683.0000      0.0483
  684.0000      0.0480
  685.0000      0.0477
  686.0000      0.0473
  687.0000      0.0471
  688.0000      0.0468
  689.0000      0.0465
  690.0000      0.0462
  691.0000      0.0459
  692.0000      0.0456
  693.0000      0.0453
  694.0000      0.0452
  695.0000      0.0450
  696.0000      0.0447
  697.0000      0.0445
  698.0000      0.0443
  699.0000      0.0441
  700.0000      0.0440
  701.0000      0.0438
  702.0000      0.0436
  703.0000      0.0435
  704.0000      0.0434
  705.0000      0.0432
  706.0000      0.0431
  707.0000      0.0431
  708.0000      0.0429
  709.0000      0.0428
  710.0000      0.0426
  711.0000      0.0424
  712.0000      0.0423
  713.0000      0.0422
  714.0000      0.0421
  715.0000      0.0420
  716.0000      0.0420
  717.0000      0.0419
  718.0000      0.0418
  719.0000      0.0417
  720.0000      0.0416
  721.0000      0.0416
  722.0000      0.0415
  723.0000      0.0415
  724.0000      0.0414
  725.0000      0.0414
  726.0000      0.0413
  727.0000      0.0413
  728.0000      0.0412
  729.0000      0.0412
  730.0000      0.0411
  731.0000      0.0411
  732.0000      0.0410
  733.0000      0.0409
  734.0000      0.0408
  735.0000      0.0408
  736.0000      0.0407
  737.0000      0.0407
  738.0000      0.0406
  739.0000      0.0406
  740.0000      0.0406
  741.0000      0.0405
  742.0000      0.0405
  743.0000      0.0404
  744.0000      0.0404
  745.0000      0.0404
  746.0000      0.0403
  747.0000      0.0403
  748.0000      0.0402
  749.0000      0.0402
  750.0000      0.0401
  751.0000      0.0401
  752.0000      0.0400
  753.0000      0.0400
  754.0000      0.0399
  755.0000      0.0398
  756.0000      0.0398
  757.0000      0.0397
  758.0000      0.0396
  759.0000      0.0396
  760.0000      0.0395
  761.0000      0.0395
  762.0000      0.0395
  763.0000      0.0393
  764.0000      0.0392
  765.0000      0.0392
  766.0000      0.0391
  767.0000      0.0391
  768.0000      0.0390
  769.0000      0.0388
  770.0000      0.0387
  771.0000      0.0386
  772.0000      0.0385
  773.0000      0.0384
  774.0000      0.0384
  775.0000      0.0383
  776.0000      0.0383
  777.0000      0.0382
  778.0000      0.0382
  779.0000      0.0382
  780.0000      0.0382
  781.0000      0.0381
  782.0000      0.0381
  783.0000      0.0379
  784.0000      0.0379
  785.0000      0.0379
  786.0000      0.0379
  787.0000      0.0379
  788.0000      0.0379
  789.0000      0.0378
  790.0000      0.0377
  791.0000      0.0375
  792.0000      0.0375
  793.0000      0.0376
  794.0000      0.0375
  795.0000      0.0375
  796.0000      0.0374
  797.0000      0.0374
  798.0000      0.0374
  799.0000      0.0373
  800.0000      0.0373
