Start Wavelength:    200.0000
End Wavelength:    800.0000
Read Mode:  ABS
Read Average:      0.1000
Nanometer Interval:      1.0000
Time:      0.0000

  200.0000      1.1978
  201.0000      1.1644
  202.0000      1.1369
  203.0000      1.1084
  204.0000      1.0906
  205.0000      1.0638
  206.0000      1.0418
  207.0000      1.0163
  208.0000      0.9951
  209.0000      0.9651
  210.0000      0.9325
  211.0000      0.9000
  212.0000      0.8715
  213.0000      0.8366
  214.0000      0.8009
  215.0000      0.7674
  216.0000      0.7360
  217.0000      0.7000
  218.0000      0.6677
  219.0000      0.6369
  220.0000      0.6081
  221.0000      0.5776
  222.0000      0.5522
  223.0000      0.5268
  224.0000      0.5046
  225.0000      0.4823
  226.0000      0.4635
  227.0000      0.4462
  228.0000      0.4305
  229.0000      0.4147
  230.0000      0.4017
  231.0000      0.3902
  232.0000      0.3799
  233.0000      0.3700
  234.0000      0.3609
  235.0000      0.3532
  236.0000      0.3470
  237.0000      0.3403
  238.0000      0.3344
  239.0000      0.3292
  240.0000      0.3247
  241.0000      0.3204
  242.0000      0.3167
  243.0000      0.3132
  244.0000      0.3100
  245.0000      0.3073
  246.0000      0.3045
  247.0000      0.3023
  248.0000      0.2996
  249.0000      0.2980
  250.0000      0.2960
  251.0000      0.2942
  252.0000      0.2926
  253.0000      0.2912
  254.0000      0.2893
  255.0000      0.2875
  256.0000      0.2866
  257.0000      0.2857
  258.0000      0.2842
  259.0000      0.2822
  260.0000      0.2812
  261.0000      0.2796
  262.0000      0.2786
  263.0000      0.2765
  264.0000      0.2753
  265.0000      0.2741
  266.0000      0.2722
  267.0000      0.2704
  268.0000      0.2695
  269.0000      0.2680
  270.0000      0.2661
  271.0000      0.2638
  272.0000      0.2625
  273.0000      0.2612
  274.0000      0.2592
  275.0000      0.2569
  276.0000      0.2555
  277.0000      0.2534
  278.0000      0.2522
  279.0000      0.2498
  280.0000      0.2476
  281.0000      0.2456
  282.0000      0.2439
  283.0000      0.2415
  284.0000      0.2398
  285.0000      0.2374
  286.0000      0.2350
  287.0000      0.2323
  288.0000      0.2309
  289.0000      0.2289
  290.0000      0.2263
  291.0000      0.2235
  292.0000      0.2222
  293.0000      0.2212
  294.0000      0.2179
  295.0000      0.2160
  296.0000      0.2139
  297.0000      0.2120
  298.0000      0.2106
  299.0000      0.2084
  300.0000      0.2070
  301.0000      0.2046
  302.0000      0.2034
  303.0000      0.2022
  304.0000      0.2001
  305.0000      0.1989
  306.0000      0.1974
  307.0000      0.1958
  308.0000      0.1945
  309.0000      0.1937
  310.0000      0.1917
  311.0000      0.1895
  312.0000      0.1892
  313.0000      0.1885
  314.0000      0.1870
  315.0000      0.1845
  316.0000      0.1845
  317.0000      0.1835
  318.0000      0.1806
  319.0000      0.1804
  320.0000      0.1792
  321.0000      0.1792
  322.0000      0.1849
  323.0000      0.1831
  324.0000      0.1824
  325.0000      0.1815
  326.0000      0.1798
  327.0000      0.1782
  328.0000      0.1779
  329.0000      0.1767
  330.0000      0.1761
  331.0000      0.1746
  332.0000      0.1730
  333.0000      0.1723
  334.0000      0.1720
  335.0000      0.1703
  336.0000      0.1687
  337.0000      0.1683
  338.0000      0.1675
  339.0000      0.1662
  340.0000      0.1655
  341.0000      0.1648
  342.0000      0.1638
  343.0000      0.1626
  344.0000      0.1619
  345.0000      0.1613
  346.0000      0.1600
  347.0000      0.1592
  348.0000      0.1581
  349.0000      0.1577
  350.0000      0.1568
  351.0000      0.1560
  352.0000      0.1553
  353.0000      0.1546
  354.0000      0.1538
  355.0000      0.1528
  356.0000      0.1527
  357.0000      0.1534
  358.0000      0.1508
  359.0000      0.1508
  360.0000      0.1525
  361.0000      0.1507
  362.0000      0.1483
  363.0000      0.1484
  364.0000      0.1481
  365.0000      0.1489
  366.0000      0.1462
  367.0000      0.1461
  368.0000      0.1462
  369.0000      0.1459
  370.0000      0.1443
  371.0000      0.1427
  372.0000      0.1441
  373.0000      0.1434
  374.0000      0.1413
  375.0000      0.1411
  376.0000      0.1401
  377.0000      0.1406
  378.0000      0.1406
  379.0000      0.1387
  380.0000      0.1380
  381.0000      0.1380
  382.0000      0.1371
  383.0000      0.1368
  384.0000      0.1363
  385.0000      0.1360
  386.0000      0.1350
  387.0000      0.1343
  388.0000      0.1343
  389.0000      0.1349
  390.0000      0.1331
  391.0000      0.1335
  392.0000      0.1329
  393.0000      0.1322
  394.0000      0.1316
  395.0000      0.1313
  396.0000      0.1315
  397.0000      0.1317
  398.0000      0.1303
  399.0000      0.1301
  400.0000      0.1294
  401.0000      0.1293
  402.0000      0.1289
  403.0000      0.1289
  404.0000      0.1282
  405.0000      0.1282
  406.0000      0.1280
  407.0000      0.1277
  408.0000      0.1272
  409.0000      0.1272
  410.0000      0.1270
  411.0000      0.1264
  412.0000      0.1260
  413.0000      0.1258
  414.0000      0.1259
  415.0000      0.1259
  416.0000      0.1328
  417.0000      0.1326
  418.0000      0.1323
  419.0000      0.1320
  420.0000      0.1319
  421.0000      0.1317
  422.0000      0.1316
  423.0000      0.1315
  424.0000      0.1312
  425.0000      0.1309
  426.0000      0.1308
  427.0000      0.1306
  428.0000      0.1305
  429.0000      0.1303
  430.0000      0.1302
  431.0000      0.1299
  432.0000      0.1299
  433.0000      0.1297
  434.0000      0.1296
  435.0000      0.1295
  436.0000      0.1294
  437.0000      0.1293
  438.0000      0.1290
  439.0000      0.1286
  440.0000      0.1283
  441.0000      0.1280
  442.0000      0.1278
  443.0000      0.1275
  444.0000      0.1271
  445.0000      0.1269
  446.0000      0.1267
  447.0000      0.1264
  448.0000      0.1261
  449.0000      0.1258
  450.0000      0.1256
  451.0000      0.1253
  452.0000      0.1250
  453.0000      0.1247
  454.0000      0.1243
  455.0000      0.1240
  456.0000      0.1237
  457.0000      0.1235
  458.0000      0.1232
  459.0000      0.1230
  460.0000      0.1230
  461.0000      0.1233
  462.0000      0.1236
  463.0000      0.1241
  464.0000      0.1248
  465.0000      0.1254
  466.0000      0.1259
  467.0000      0.1263
  468.0000      0.1266
  469.0000      0.1267
  470.0000      0.1266
  471.0000      0.1265
  472.0000      0.1263
  473.0000      0.1260
  474.0000      0.1257
  475.0000      0.1254
  476.0000      0.1251
  477.0000      0.1250
  478.0000      0.1247
  479.0000      0.1245
  480.0000      0.1244
  481.0000      0.1243
  482.0000      0.1242
  483.0000      0.1242
  484.0000      0.1240
  485.0000      0.1239
  486.0000      0.1239
  487.0000      0.1238
  488.0000      0.1237
  489.0000      0.1236
  490.0000      0.1235
  491.0000      0.1234
  492.0000      0.1234
  493.0000      0.1233
  494.0000      0.1232
  495.0000      0.1233
  496.0000      0.1232
  497.0000      0.1232
  498.0000      0.1232
  499.0000      0.1232
  500.0000      0.1232
  501.0000      0.1232
  502.0000      0.1232
  503.0000      0.1232
  504.0000      0.1232
  505.0000      0.1232
  506.0000      0.1233
  507.0000      0.1233
  508.0000      0.1234
  509.0000      0.1234
  510.0000      0.1234
  511.0000      0.1234
  512.0000      0.1235
  513.0000      0.1234
  514.0000      0.1234
  515.0000      0.1233
  516.0000      0.1234
  517.0000      0.1233
  518.0000      0.1234
  519.0000      0.1233
  520.0000      0.1233
  521.0000      0.1233
  522.0000      0.1233
  523.0000      0.1233
  524.0000      0.1233
  525.0000      0.1233
  526.0000      0.1233
  527.0000      0.1233
  528.0000      0.1234
  529.0000      0.1234
  530.0000      0.1235
  531.0000      0.1235
  532.0000      0.1235
  533.0000      0.1236
  534.0000      0.1236
  535.0000      0.1236
  536.0000      0.1237
  537.0000      0.1237
  538.0000      0.1237
  539.0000      0.1238
  540.0000      0.1238
  541.0000      0.1237
  542.0000      0.1238
  543.0000      0.1238
  544.0000      0.1238
  545.0000      0.1238
  546.0000      0.1238
  547.0000      0.1237
  548.0000      0.1237
  549.0000      0.1235
  550.0000      0.1233
  551.0000      0.1233
  552.0000      0.1232
  553.0000      0.1233
  554.0000      0.1234
  555.0000      0.1235
  556.0000      0.1236
  557.0000      0.1279
  558.0000      0.1279
  559.0000      0.1279
  560.0000      0.1279
  561.0000      0.1278
  562.0000      0.1278
  563.0000      0.1277
  564.0000      0.1277
  565.0000      0.1277
  566.0000      0.1276
  567.0000      0.1276
  568.0000      0.1275
  569.0000      0.1275
  570.0000      0.1274
  571.0000      0.1274
  572.0000      0.1273
  573.0000      0.1273
  574.0000      0.1272
  575.0000      0.1271
  576.0000      0.1271
  577.0000      0.1270
  578.0000      0.1270
  579.0000      0.1269
  580.0000      0.1268
  581.0000      0.1267
  582.0000      0.1267
  583.0000      0.1266
  584.0000      0.1265
  585.0000      0.1264
  586.0000      0.1263
  587.0000      0.1262
  588.0000      0.1261
  589.0000      0.1260
  590.0000      0.1259
  591.0000      0.1258
  592.0000      0.1257
  593.0000      0.1255
  594.0000      0.1254
  595.0000      0.1253
  596.0000      0.1252
  597.0000      0.1251
  598.0000      0.1250
  599.0000      0.1249
  600.0000      0.1247
  601.0000      0.1247
  602.0000      0.1246
  603.0000      0.1244
  604.0000      0.1243
  605.0000      0.1242
  606.0000      0.1241
  607.0000      0.1240
  608.0000      0.1238
  609.0000      0.1238
  610.0000      0.1237
  611.0000      0.1236
  612.0000      0.1235
  613.0000      0.1234
  614.0000      0.1232
  615.0000      0.1231
  616.0000      0.1230
  617.0000      0.1228
  618.0000      0.1227
  619.0000      0.1226
  620.0000      0.1224
  621.0000      0.1223
  622.0000      0.1222
  623.0000      0.1220
  624.0000      0.1219
  625.0000      0.1218
  626.0000      0.1217
  627.0000      0.1215
  628.0000      0.1214
  629.0000      0.1212
  630.0000      0.1211
  631.0000      0.1209
  632.0000      0.1208
  633.0000      0.1206
  634.0000      0.1204
  635.0000      0.1203
  636.0000      0.1202
  637.0000      0.1200
  638.0000      0.1198
  639.0000      0.1197
  640.0000      0.1195
  641.0000      0.1194
  642.0000      0.1192
  643.0000      0.1191
  644.0000      0.1189
  645.0000      0.1188
  646.0000      0.1186
  647.0000      0.1184
  648.0000      0.1184
  649.0000      0.1182
  650.0000      0.1181
  651.0000      0.1180
  652.0000      0.1179
  653.0000      0.1177
  654.0000      0.1176
  655.0000      0.1174
  656.0000      0.1173
  657.0000      0.1171
  658.0000      0.1169
  659.0000      0.1168
  660.0000      0.1166
  661.0000      0.1165
  662.0000      0.1164
  663.0000      0.1163
  664.0000      0.1161
  665.0000      0.1159
  666.0000      0.1158
  667.0000      0.1156
  668.0000      0.1154
  669.0000      0.1153
  670.0000      0.1152
  671.0000      0.1150
  672.0000      0.1149
  673.0000      0.1147
  674.0000      0.1145
  675.0000      0.1143
  676.0000      0.1141
  677.0000      0.1139
  678.0000      0.1137
  679.0000      0.1135
  680.0000      0.1133
  681.0000      0.1132
  682.0000      0.1130
  683.0000      0.1128
  684.0000      0.1126
  685.0000      0.1123
  686.0000      0.1122
  687.0000      0.1119
  688.0000      0.1117
  689.0000      0.1115
  690.0000      0.1113
  691.0000      0.1111
  692.0000      0.1109
  693.0000      0.1107
  694.0000      0.1105
  695.0000      0.1103
  696.0000      0.1100
  697.0000      0.1098
  698.0000      0.1096
  699.0000      0.1094
  700.0000      0.1092
  701.0000      0.1090
  702.0000      0.1088
  703.0000      0.1085
  704.0000      0.1083
  705.0000      0.1081
  706.0000      0.1079
  707.0000      0.1077
  708.0000      0.1074
  709.0000      0.1072
  710.0000      0.1070
  711.0000      0.1067
  712.0000      0.1065
  713.0000      0.1063
  714.0000      0.1060
  715.0000      0.1057
  716.0000      0.1055
  717.0000      0.1053
  718.0000      0.1050
  719.0000      0.1049
  720.0000      0.1046
  721.0000      0.1044
  722.0000      0.1042
  723.0000      0.1039
  724.0000      0.1037
  725.0000      0.1034
  726.0000      0.1032
  727.0000      0.1028
  728.0000      0.1026
  729.0000      0.1023
  730.0000      0.1019
  731.0000      0.1017
  732.0000      0.1014
  733.0000      0.1011
  734.0000      0.1009
  735.0000      0.1006
  736.0000      0.0959
  737.0000      0.0956
  738.0000      0.0954
  739.0000      0.0950
  740.0000      0.0947
  741.0000      0.0944
  742.0000      0.0942
  743.0000      0.0940
  744.0000      0.0936
  745.0000      0.0933
  746.0000      0.0932
  747.0000      0.0930
  748.0000      0.0928
  749.0000      0.0926
  750.0000      0.0924
  751.0000      0.0921
  752.0000      0.0919
  753.0000      0.0917
  754.0000      0.0914
  755.0000      0.0912
  756.0000      0.0910
  757.0000      0.0907
  758.0000      0.0905
  759.0000      0.0902
  760.0000      0.0900
  761.0000      0.0898
  762.0000      0.0896
  763.0000      0.0892
  764.0000      0.0891
  765.0000      0.0889
  766.0000      0.0886
  767.0000      0.0884
  768.0000      0.0881
  769.0000      0.0879
  770.0000      0.0877
  771.0000      0.0874
  772.0000      0.0872
  773.0000      0.0869
  774.0000      0.0866
  775.0000      0.0864
  776.0000      0.0861
  777.0000      0.0859
  778.0000      0.0855
  779.0000      0.0852
  780.0000      0.0850
  781.0000      0.0848
  782.0000      0.0845
  783.0000      0.0842
  784.0000      0.0839
  785.0000      0.0837
  786.0000      0.0834
  787.0000      0.0832
  788.0000      0.0829
  789.0000      0.0826
  790.0000      0.0823
  791.0000      0.0821
  792.0000      0.0818
  793.0000      0.0815
  794.0000      0.0812
  795.0000      0.0810
  796.0000      0.0807
  797.0000      0.0804
  798.0000      0.0801
  799.0000      0.0798
  800.0000      0.0794
