Start Wavelength:    200.0000
End Wavelength:    800.0000
Read Mode:  ABS
Read Average:      0.1000
Nanometer Interval:      1.0000
Time:      0.0000

  200.0000      0.7327
  201.0000      0.6738
  202.0000      0.6468
  203.0000      0.6192
  204.0000      0.5947
  205.0000      0.5715
  206.0000      0.5556
  207.0000      0.5379
  208.0000      0.5234
  209.0000      0.5061
  210.0000      0.4920
  211.0000      0.4779
  212.0000      0.4654
  213.0000      0.4503
  214.0000      0.4387
  215.0000      0.4245
  216.0000      0.4133
  217.0000      0.4009
  218.0000      0.3898
  219.0000      0.3799
  220.0000      0.3687
  221.0000      0.3585
  222.0000      0.3499
  223.0000      0.3413
  224.0000      0.3321
  225.0000      0.3237
  226.0000      0.3164
  227.0000      0.3093
  228.0000      0.3027
  229.0000      0.2954
  230.0000      0.2884
  231.0000      0.2823
  232.0000      0.2772
  233.0000      0.2709
  234.0000      0.2654
  235.0000      0.2605
  236.0000      0.2557
  237.0000      0.2509
  238.0000      0.2475
  239.0000      0.2432
  240.0000      0.2396
  241.0000      0.2362
  242.0000      0.2330
  243.0000      0.2307
  244.0000      0.2276
  245.0000      0.2251
  246.0000      0.2226
  247.0000      0.2205
  248.0000      0.2187
  249.0000      0.2163
  250.0000      0.2148
  251.0000      0.2131
  252.0000      0.2116
  253.0000      0.2104
  254.0000      0.2080
  255.0000      0.2072
  256.0000      0.2056
  257.0000      0.2040
  258.0000      0.2031
  259.0000      0.2006
  260.0000      0.1996
  261.0000      0.1977
  262.0000      0.1967
  263.0000      0.1950
  264.0000      0.1927
  265.0000      0.1918
  266.0000      0.1895
  267.0000      0.1876
  268.0000      0.1866
  269.0000      0.1834
  270.0000      0.1819
  271.0000      0.1798
  272.0000      0.1780
  273.0000      0.1758
  274.0000      0.1734
  275.0000      0.1718
  276.0000      0.1696
  277.0000      0.1675
  278.0000      0.1647
  279.0000      0.1626
  280.0000      0.1602
  281.0000      0.1575
  282.0000      0.1551
  283.0000      0.1537
  284.0000      0.1511
  285.0000      0.1485
  286.0000      0.1462
  287.0000      0.1434
  288.0000      0.1408
  289.0000      0.1393
  290.0000      0.1362
  291.0000      0.1339
  292.0000      0.1312
  293.0000      0.1296
  294.0000      0.1265
  295.0000      0.1248
  296.0000      0.1225
  297.0000      0.1200
  298.0000      0.1174
  299.0000      0.1164
  300.0000      0.1140
  301.0000      0.1117
  302.0000      0.1105
  303.0000      0.1086
  304.0000      0.1066
  305.0000      0.1053
  306.0000      0.1037
  307.0000      0.1013
  308.0000      0.0995
  309.0000      0.0988
  310.0000      0.0976
  311.0000      0.0958
  312.0000      0.0951
  313.0000      0.0929
  314.0000      0.0916
  315.0000      0.0915
  316.0000      0.0897
  317.0000      0.0887
  318.0000      0.0860
  319.0000      0.0860
  320.0000      0.0847
  321.0000      0.0841
  322.0000      0.0833
  323.0000      0.0816
  324.0000      0.0809
  325.0000      0.0796
  326.0000      0.0781
  327.0000      0.0773
  328.0000      0.0764
  329.0000      0.0749
  330.0000      0.0741
  331.0000      0.0729
  332.0000      0.0716
  333.0000      0.0708
  334.0000      0.0704
  335.0000      0.0693
  336.0000      0.0679
  337.0000      0.0672
  338.0000      0.0663
  339.0000      0.0655
  340.0000      0.0648
  341.0000      0.0640
  342.0000      0.0625
  343.0000      0.0621
  344.0000      0.0613
  345.0000      0.0603
  346.0000      0.0590
  347.0000      0.0579
  348.0000      0.0569
  349.0000      0.0566
  350.0000      0.0559
  351.0000      0.0553
  352.0000      0.0541
  353.0000      0.0536
  354.0000      0.0534
  355.0000      0.0527
  356.0000      0.0523
  357.0000      0.0496
  358.0000      0.0494
  359.0000      0.0497
  360.0000      0.0502
  361.0000      0.0495
  362.0000      0.0475
  363.0000      0.0473
  364.0000      0.0455
  365.0000      0.0467
  366.0000      0.0446
  367.0000      0.0457
  368.0000      0.0438
  369.0000      0.0438
  370.0000      0.0430
  371.0000      0.0431
  372.0000      0.0436
  373.0000      0.0415
  374.0000      0.0409
  375.0000      0.0400
  376.0000      0.0400
  377.0000      0.0406
  378.0000      0.0404
  379.0000      0.0388
  380.0000      0.0376
  381.0000      0.0375
  382.0000      0.0371
  383.0000      0.0376
  384.0000      0.0365
  385.0000      0.0370
  386.0000      0.0362
  387.0000      0.0349
  388.0000      0.0353
  389.0000      0.0352
  390.0000      0.0357
  391.0000      0.0351
  392.0000      0.0350
  393.0000      0.0334
  394.0000      0.0331
  395.0000      0.0330
  396.0000      0.0334
  397.0000      0.0334
  398.0000      0.0317
  399.0000      0.0314
  400.0000      0.0312
  401.0000      0.0313
  402.0000      0.0308
  403.0000      0.0304
  404.0000      0.0297
  405.0000      0.0300
  406.0000      0.0297
  407.0000      0.0293
  408.0000      0.0287
  409.0000      0.0291
  410.0000      0.0290
  411.0000      0.0284
  412.0000      0.0275
  413.0000      0.0275
  414.0000      0.0277
  415.0000      0.0280
  416.0000      0.0266
  417.0000      0.0265
  418.0000      0.0262
  419.0000      0.0259
  420.0000      0.0256
  421.0000      0.0255
  422.0000      0.0253
  423.0000      0.0251
  424.0000      0.0248
  425.0000      0.0246
  426.0000      0.0243
  427.0000      0.0240
  428.0000      0.0239
  429.0000      0.0237
  430.0000      0.0235
  431.0000      0.0234
  432.0000      0.0231
  433.0000      0.0229
  434.0000      0.0228
  435.0000      0.0226
  436.0000      0.0224
  437.0000      0.0222
  438.0000      0.0220
  439.0000      0.0218
  440.0000      0.0216
  441.0000      0.0216
  442.0000      0.0214
  443.0000      0.0213
  444.0000      0.0211
  445.0000      0.0210
  446.0000      0.0209
  447.0000      0.0207
  448.0000      0.0205
  449.0000      0.0204
  450.0000      0.0204
  451.0000      0.0202
  452.0000      0.0201
  453.0000      0.0199
  454.0000      0.0198
  455.0000      0.0198
  456.0000      0.0196
  457.0000      0.0195
  458.0000      0.0194
  459.0000      0.0193
  460.0000      0.0194
  461.0000      0.0194
  462.0000      0.0194
  463.0000      0.0195
  464.0000      0.0195
  465.0000      0.0195
  466.0000      0.0195
  467.0000      0.0194
  468.0000      0.0193
  469.0000      0.0193
  470.0000      0.0191
  471.0000      0.0190
  472.0000      0.0187
  473.0000      0.0185
  474.0000      0.0182
  475.0000      0.0180
  476.0000      0.0177
  477.0000      0.0176
  478.0000      0.0173
  479.0000      0.0171
  480.0000      0.0168
  481.0000      0.0166
  482.0000      0.0163
  483.0000      0.0162
  484.0000      0.0159
  485.0000      0.0158
  486.0000      0.0156
  487.0000      0.0155
  488.0000      0.0154
  489.0000      0.0152
  490.0000      0.0152
  491.0000      0.0152
  492.0000      0.0152
  493.0000      0.0153
  494.0000      0.0152
  495.0000      0.0152
  496.0000      0.0150
  497.0000      0.0150
  498.0000      0.0148
  499.0000      0.0147
  500.0000      0.0146
  501.0000      0.0145
  502.0000      0.0144
  503.0000      0.0143
  504.0000      0.0142
  505.0000      0.0140
  506.0000      0.0140
  507.0000      0.0139
  508.0000      0.0138
  509.0000      0.0137
  510.0000      0.0136
  511.0000      0.0135
  512.0000      0.0134
  513.0000      0.0132
  514.0000      0.0131
  515.0000      0.0130
  516.0000      0.0129
  517.0000      0.0128
  518.0000      0.0127
  519.0000      0.0126
  520.0000      0.0125
  521.0000      0.0124
  522.0000      0.0124
  523.0000      0.0123
  524.0000      0.0122
  525.0000      0.0121
  526.0000      0.0120
  527.0000      0.0120
  528.0000      0.0119
  529.0000      0.0119
  530.0000      0.0119
  531.0000      0.0119
  532.0000      0.0119
  533.0000      0.0119
  534.0000      0.0119
  535.0000      0.0119
  536.0000      0.0119
  537.0000      0.0119
  538.0000      0.0119
  539.0000      0.0118
  540.0000      0.0118
  541.0000      0.0118
  542.0000      0.0117
  543.0000      0.0117
  544.0000      0.0117
  545.0000      0.0117
  546.0000      0.0117
  547.0000      0.0116
  548.0000      0.0115
  549.0000      0.0115
  550.0000      0.0114
  551.0000      0.0114
  552.0000      0.0113
  553.0000      0.0113
  554.0000      0.0114
  555.0000      0.0114
  556.0000      0.0114
  557.0000      0.0113
  558.0000      0.0113
  559.0000      0.0114
  560.0000      0.0114
  561.0000      0.0113
  562.0000      0.0113
  563.0000      0.0111
  564.0000      0.0110
  565.0000      0.0109
  566.0000      0.0108
  567.0000      0.0108
  568.0000      0.0108
  569.0000      0.0108
  570.0000      0.0109
  571.0000      0.0109
  572.0000      0.0109
  573.0000      0.0108
  574.0000      0.0108
  575.0000      0.0108
  576.0000      0.0107
  577.0000      0.0106
  578.0000      0.0105
  579.0000      0.0105
  580.0000      0.0104
  581.0000      0.0104
  582.0000      0.0104
  583.0000      0.0104
  584.0000      0.0104
  585.0000      0.0103
  586.0000      0.0102
  587.0000      0.0102
  588.0000      0.0101
  589.0000      0.0100
  590.0000      0.0099
  591.0000      0.0098
  592.0000      0.0098
  593.0000      0.0098
  594.0000      0.0098
  595.0000      0.0098
  596.0000      0.0098
  597.0000      0.0097
  598.0000      0.0097
  599.0000      0.0097
  600.0000      0.0098
  601.0000      0.0098
  602.0000      0.0098
  603.0000      0.0098
  604.0000      0.0098
  605.0000      0.0098
  606.0000      0.0098
  607.0000      0.0097
  608.0000      0.0097
  609.0000      0.0097
  610.0000      0.0096
  611.0000      0.0096
  612.0000      0.0096
  613.0000      0.0096
  614.0000      0.0095
  615.0000      0.0096
  616.0000      0.0097
  617.0000      0.0096
  618.0000      0.0096
  619.0000      0.0096
  620.0000      0.0095
  621.0000      0.0094
  622.0000      0.0093
  623.0000      0.0093
  624.0000      0.0092
  625.0000      0.0091
  626.0000      0.0091
  627.0000      0.0091
  628.0000      0.0090
  629.0000      0.0089
  630.0000      0.0088
  631.0000      0.0088
  632.0000      0.0088
  633.0000      0.0087
  634.0000      0.0087
  635.0000      0.0086
  636.0000      0.0086
  637.0000      0.0085
  638.0000      0.0085
  639.0000      0.0085
  640.0000      0.0084
  641.0000      0.0084
  642.0000      0.0083
  643.0000      0.0083
  644.0000      0.0082
  645.0000      0.0081
  646.0000      0.0081
  647.0000      0.0080
  648.0000      0.0080
  649.0000      0.0080
  650.0000      0.0079
  651.0000      0.0079
  652.0000      0.0079
  653.0000      0.0079
  654.0000      0.0080
  655.0000      0.0080
  656.0000      0.0080
  657.0000      0.0080
  658.0000      0.0081
  659.0000      0.0082
  660.0000      0.0082
  661.0000      0.0083
  662.0000      0.0084
  663.0000      0.0084
  664.0000      0.0085
  665.0000      0.0086
  666.0000      0.0086
  667.0000      0.0087
  668.0000      0.0087
  669.0000      0.0088
  670.0000      0.0088
  671.0000      0.0089
  672.0000      0.0090
  673.0000      0.0091
  674.0000      0.0091
  675.0000      0.0092
  676.0000      0.0093
  677.0000      0.0094
  678.0000      0.0094
  679.0000      0.0095
  680.0000      0.0096
  681.0000      0.0097
  682.0000      0.0097
  683.0000      0.0097
  684.0000      0.0097
  685.0000      0.0097
  686.0000      0.0096
  687.0000      0.0096
  688.0000      0.0095
  689.0000      0.0095
  690.0000      0.0095
  691.0000      0.0094
  692.0000      0.0094
  693.0000      0.0093
  694.0000      0.0093
  695.0000      0.0093
  696.0000      0.0092
  697.0000      0.0091
  698.0000      0.0091
  699.0000      0.0091
  700.0000      0.0090
  701.0000      0.0090
  702.0000      0.0089
  703.0000      0.0088
  704.0000      0.0088
  705.0000      0.0087
  706.0000      0.0087
  707.0000      0.0086
  708.0000      0.0086
  709.0000      0.0085
  710.0000      0.0085
  711.0000      0.0084
  712.0000      0.0083
  713.0000      0.0082
  714.0000      0.0081
  715.0000      0.0080
  716.0000      0.0079
  717.0000      0.0078
  718.0000      0.0077
  719.0000      0.0076
  720.0000      0.0075
  721.0000      0.0074
  722.0000      0.0072
  723.0000      0.0070
  724.0000      0.0069
  725.0000      0.0067
  726.0000      0.0065
  727.0000      0.0064
  728.0000      0.0063
  729.0000      0.0062
  730.0000      0.0062
  731.0000      0.0062
  732.0000      0.0061
  733.0000      0.0062
  734.0000      0.0062
  735.0000      0.0062
  736.0000      0.0061
  737.0000      0.0060
  738.0000      0.0060
  739.0000      0.0059
  740.0000      0.0059
  741.0000      0.0058
  742.0000      0.0059
  743.0000      0.0060
  744.0000      0.0059
  745.0000      0.0059
  746.0000      0.0060
  747.0000      0.0060
  748.0000      0.0060
  749.0000      0.0061
  750.0000      0.0061
  751.0000      0.0061
  752.0000      0.0062
  753.0000      0.0062
  754.0000      0.0063
  755.0000      0.0063
  756.0000      0.0064
  757.0000      0.0063
  758.0000      0.0064
  759.0000      0.0063
  760.0000      0.0064
  761.0000      0.0064
  762.0000      0.0064
  763.0000      0.0064
  764.0000      0.0064
  765.0000      0.0064
  766.0000      0.0064
  767.0000      0.0063
  768.0000      0.0063
  769.0000      0.0063
  770.0000      0.0063
  771.0000      0.0063
  772.0000      0.0062
  773.0000      0.0063
  774.0000      0.0062
  775.0000      0.0061
  776.0000      0.0061
  777.0000      0.0061
  778.0000      0.0061
  779.0000      0.0060
  780.0000      0.0061
  781.0000      0.0061
  782.0000      0.0061
  783.0000      0.0061
  784.0000      0.0061
  785.0000      0.0061
  786.0000      0.0061
  787.0000      0.0061
  788.0000      0.0061
  789.0000      0.0061
  790.0000      0.0061
  791.0000      0.0061
  792.0000      0.0061
  793.0000      0.0060
  794.0000      0.0061
  795.0000      0.0060
  796.0000      0.0060
  797.0000      0.0060
  798.0000      0.0059
  799.0000      0.0059
  800.0000      0.0058
