Start Wavelength:    200.0000
End Wavelength:    800.0000
Read Mode:  ABS
Read Average:      0.1000
Nanometer Interval:      1.0000
Time:      0.0000

  200.0000      0.7324
  201.0000      0.6767
  202.0000      0.6423
  203.0000      0.6165
  204.0000      0.5931
  205.0000      0.5739
  206.0000      0.5550
  207.0000      0.5370
  208.0000      0.5239
  209.0000      0.5075
  210.0000      0.4937
  211.0000      0.4793
  212.0000      0.4653
  213.0000      0.4511
  214.0000      0.4386
  215.0000      0.4271
  216.0000      0.4144
  217.0000      0.4012
  218.0000      0.3907
  219.0000      0.3801
  220.0000      0.3697
  221.0000      0.3587
  222.0000      0.3496
  223.0000      0.3411
  224.0000      0.3327
  225.0000      0.3238
  226.0000      0.3161
  227.0000      0.3094
  228.0000      0.3033
  229.0000      0.2959
  230.0000      0.2894
  231.0000      0.2837
  232.0000      0.2779
  233.0000      0.2723
  234.0000      0.2677
  235.0000      0.2623
  236.0000      0.2579
  237.0000      0.2536
  238.0000      0.2502
  239.0000      0.2460
  240.0000      0.2424
  241.0000      0.2389
  242.0000      0.2359
  243.0000      0.2338
  244.0000      0.2304
  245.0000      0.2275
  246.0000      0.2260
  247.0000      0.2231
  248.0000      0.2215
  249.0000      0.2202
  250.0000      0.2176
  251.0000      0.2167
  252.0000      0.2154
  253.0000      0.2144
  254.0000      0.2126
  255.0000      0.2112
  256.0000      0.2102
  257.0000      0.2088
  258.0000      0.2079
  259.0000      0.2057
  260.0000      0.2043
  261.0000      0.2031
  262.0000      0.2007
  263.0000      0.1987
  264.0000      0.1972
  265.0000      0.1955
  266.0000      0.1942
  267.0000      0.1923
  268.0000      0.1906
  269.0000      0.1881
  270.0000      0.1863
  271.0000      0.1843
  272.0000      0.1820
  273.0000      0.1801
  274.0000      0.1776
  275.0000      0.1757
  276.0000      0.1737
  277.0000      0.1711
  278.0000      0.1683
  279.0000      0.1661
  280.0000      0.1638
  281.0000      0.1612
  282.0000      0.1592
  283.0000      0.1561
  284.0000      0.1533
  285.0000      0.1510
  286.0000      0.1488
  287.0000      0.1455
  288.0000      0.1431
  289.0000      0.1408
  290.0000      0.1384
  291.0000      0.1355
  292.0000      0.1333
  293.0000      0.1302
  294.0000      0.1281
  295.0000      0.1261
  296.0000      0.1234
  297.0000      0.1206
  298.0000      0.1186
  299.0000      0.1167
  300.0000      0.1148
  301.0000      0.1126
  302.0000      0.1114
  303.0000      0.1091
  304.0000      0.1074
  305.0000      0.1061
  306.0000      0.1043
  307.0000      0.1031
  308.0000      0.1012
  309.0000      0.0997
  310.0000      0.0984
  311.0000      0.0968
  312.0000      0.0957
  313.0000      0.0944
  314.0000      0.0928
  315.0000      0.0920
  316.0000      0.0903
  317.0000      0.0885
  318.0000      0.0880
  319.0000      0.0867
  320.0000      0.0856
  321.0000      0.0845
  322.0000      0.0838
  323.0000      0.0824
  324.0000      0.0825
  325.0000      0.0820
  326.0000      0.0803
  327.0000      0.0803
  328.0000      0.0790
  329.0000      0.0787
  330.0000      0.0777
  331.0000      0.0767
  332.0000      0.0759
  333.0000      0.0753
  334.0000      0.0742
  335.0000      0.0734
  336.0000      0.0732
  337.0000      0.0717
  338.0000      0.0710
  339.0000      0.0702
  340.0000      0.0687
  341.0000      0.0687
  342.0000      0.0679
  343.0000      0.0668
  344.0000      0.0655
  345.0000      0.0649
  346.0000      0.0648
  347.0000      0.0634
  348.0000      0.0626
  349.0000      0.0617
  350.0000      0.0607
  351.0000      0.0598
  352.0000      0.0593
  353.0000      0.0587
  354.0000      0.0572
  355.0000      0.0565
  356.0000      0.0562
  357.0000      0.0515
  358.0000      0.0522
  359.0000      0.0514
  360.0000      0.0480
  361.0000      0.0480
  362.0000      0.0481
  363.0000      0.0495
  364.0000      0.0460
  365.0000      0.0467
  366.0000      0.0454
  367.0000      0.0446
  368.0000      0.0455
  369.0000      0.0452
  370.0000      0.0432
  371.0000      0.0436
  372.0000      0.0431
  373.0000      0.0435
  374.0000      0.0421
  375.0000      0.0406
  376.0000      0.0410
  377.0000      0.0403
  378.0000      0.0401
  379.0000      0.0402
  380.0000      0.0389
  381.0000      0.0380
  382.0000      0.0374
  383.0000      0.0384
  384.0000      0.0376
  385.0000      0.0376
  386.0000      0.0370
  387.0000      0.0365
  388.0000      0.0350
  389.0000      0.0350
  390.0000      0.0355
  391.0000      0.0349
  392.0000      0.0338
  393.0000      0.0334
  394.0000      0.0330
  395.0000      0.0332
  396.0000      0.0323
  397.0000      0.0321
  398.0000      0.0312
  399.0000      0.0313
  400.0000      0.0315
  401.0000      0.0316
  402.0000      0.0304
  403.0000      0.0301
  404.0000      0.0300
  405.0000      0.0302
  406.0000      0.0300
  407.0000      0.0293
  408.0000      0.0287
  409.0000      0.0286
  410.0000      0.0284
  411.0000      0.0286
  412.0000      0.0278
  413.0000      0.0278
  414.0000      0.0275
  415.0000      0.0277
  416.0000      0.0273
  417.0000      0.0270
  418.0000      0.0268
  419.0000      0.0265
  420.0000      0.0263
  421.0000      0.0260
  422.0000      0.0258
  423.0000      0.0254
  424.0000      0.0254
  425.0000      0.0250
  426.0000      0.0248
  427.0000      0.0248
  428.0000      0.0246
  429.0000      0.0244
  430.0000      0.0242
  431.0000      0.0242
  432.0000      0.0240
  433.0000      0.0239
  434.0000      0.0238
  435.0000      0.0236
  436.0000      0.0234
  437.0000      0.0233
  438.0000      0.0231
  439.0000      0.0228
  440.0000      0.0226
  441.0000      0.0224
  442.0000      0.0222
  443.0000      0.0220
  444.0000      0.0217
  445.0000      0.0216
  446.0000      0.0214
  447.0000      0.0212
  448.0000      0.0210
  449.0000      0.0208
  450.0000      0.0205
  451.0000      0.0204
  452.0000      0.0203
  453.0000      0.0201
  454.0000      0.0200
  455.0000      0.0199
  456.0000      0.0197
  457.0000      0.0196
  458.0000      0.0195
  459.0000      0.0193
  460.0000      0.0192
  461.0000      0.0189
  462.0000      0.0187
  463.0000      0.0186
  464.0000      0.0184
  465.0000      0.0184
  466.0000      0.0182
  467.0000      0.0180
  468.0000      0.0178
  469.0000      0.0178
  470.0000      0.0176
  471.0000      0.0174
  472.0000      0.0173
  473.0000      0.0173
  474.0000      0.0172
  475.0000      0.0171
  476.0000      0.0170
  477.0000      0.0169
  478.0000      0.0168
  479.0000      0.0167
  480.0000      0.0166
  481.0000      0.0165
  482.0000      0.0164
  483.0000      0.0163
  484.0000      0.0162
  485.0000      0.0161
  486.0000      0.0161
  487.0000      0.0159
  488.0000      0.0159
  489.0000      0.0158
  490.0000      0.0157
  491.0000      0.0156
  492.0000      0.0156
  493.0000      0.0154
  494.0000      0.0154
  495.0000      0.0153
  496.0000      0.0153
  497.0000      0.0153
  498.0000      0.0152
  499.0000      0.0151
  500.0000      0.0151
  501.0000      0.0149
  502.0000      0.0149
  503.0000      0.0148
  504.0000      0.0147
  505.0000      0.0147
  506.0000      0.0146
  507.0000      0.0145
  508.0000      0.0144
  509.0000      0.0143
  510.0000      0.0141
  511.0000      0.0141
  512.0000      0.0139
  513.0000      0.0139
  514.0000      0.0138
  515.0000      0.0136
  516.0000      0.0136
  517.0000      0.0135
  518.0000      0.0134
  519.0000      0.0133
  520.0000      0.0132
  521.0000      0.0131
  522.0000      0.0130
  523.0000      0.0129
  524.0000      0.0127
  525.0000      0.0126
  526.0000      0.0125
  527.0000      0.0123
  528.0000      0.0121
  529.0000      0.0119
  530.0000      0.0119
  531.0000      0.0118
  532.0000      0.0117
  533.0000      0.0116
  534.0000      0.0115
  535.0000      0.0115
  536.0000      0.0115
  537.0000      0.0115
  538.0000      0.0114
  539.0000      0.0114
  540.0000      0.0113
  541.0000      0.0113
  542.0000      0.0112
  543.0000      0.0111
  544.0000      0.0111
  545.0000      0.0111
  546.0000      0.0111
  547.0000      0.0111
  548.0000      0.0111
  549.0000      0.0110
  550.0000      0.0110
  551.0000      0.0110
  552.0000      0.0110
  553.0000      0.0110
  554.0000      0.0110
  555.0000      0.0110
  556.0000      0.0110
  557.0000      0.0107
  558.0000      0.0107
  559.0000      0.0105
  560.0000      0.0105
  561.0000      0.0104
  562.0000      0.0104
  563.0000      0.0103
  564.0000      0.0102
  565.0000      0.0102
  566.0000      0.0101
  567.0000      0.0101
  568.0000      0.0100
  569.0000      0.0100
  570.0000      0.0099
  571.0000      0.0099
  572.0000      0.0098
  573.0000      0.0097
  574.0000      0.0096
  575.0000      0.0096
  576.0000      0.0096
  577.0000      0.0096
  578.0000      0.0096
  579.0000      0.0095
  580.0000      0.0096
  581.0000      0.0096
  582.0000      0.0095
  583.0000      0.0095
  584.0000      0.0095
  585.0000      0.0094
  586.0000      0.0094
  587.0000      0.0094
  588.0000      0.0093
  589.0000      0.0093
  590.0000      0.0092
  591.0000      0.0093
  592.0000      0.0093
  593.0000      0.0093
  594.0000      0.0093
  595.0000      0.0092
  596.0000      0.0091
  597.0000      0.0090
  598.0000      0.0090
  599.0000      0.0089
  600.0000      0.0089
  601.0000      0.0088
  602.0000      0.0089
  603.0000      0.0088
  604.0000      0.0088
  605.0000      0.0088
  606.0000      0.0088
  607.0000      0.0087
  608.0000      0.0088
  609.0000      0.0087
  610.0000      0.0086
  611.0000      0.0086
  612.0000      0.0086
  613.0000      0.0086
  614.0000      0.0086
  615.0000      0.0085
  616.0000      0.0085
  617.0000      0.0086
  618.0000      0.0086
  619.0000      0.0085
  620.0000      0.0085
  621.0000      0.0084
  622.0000      0.0084
  623.0000      0.0083
  624.0000      0.0083
  625.0000      0.0083
  626.0000      0.0083
  627.0000      0.0083
  628.0000      0.0083
  629.0000      0.0083
  630.0000      0.0082
  631.0000      0.0082
  632.0000      0.0082
  633.0000      0.0082
  634.0000      0.0082
  635.0000      0.0082
  636.0000      0.0082
  637.0000      0.0082
  638.0000      0.0082
  639.0000      0.0082
  640.0000      0.0082
  641.0000      0.0082
  642.0000      0.0082
  643.0000      0.0081
  644.0000      0.0081
  645.0000      0.0081
  646.0000      0.0081
  647.0000      0.0080
  648.0000      0.0080
  649.0000      0.0080
  650.0000      0.0080
  651.0000      0.0080
  652.0000      0.0079
  653.0000      0.0080
  654.0000      0.0079
  655.0000      0.0079
  656.0000      0.0078
  657.0000      0.0078
  658.0000      0.0078
  659.0000      0.0078
  660.0000      0.0079
  661.0000      0.0079
  662.0000      0.0080
  663.0000      0.0080
  664.0000      0.0081
  665.0000      0.0082
  666.0000      0.0082
  667.0000      0.0083
  668.0000      0.0084
  669.0000      0.0084
  670.0000      0.0085
  671.0000      0.0085
  672.0000      0.0085
  673.0000      0.0085
  674.0000      0.0085
  675.0000      0.0085
  676.0000      0.0086
  677.0000      0.0086
  678.0000      0.0086
  679.0000      0.0086
  680.0000      0.0086
  681.0000      0.0086
  682.0000      0.0086
  683.0000      0.0086
  684.0000      0.0085
  685.0000      0.0085
  686.0000      0.0084
  687.0000      0.0083
  688.0000      0.0082
  689.0000      0.0081
  690.0000      0.0080
  691.0000      0.0080
  692.0000      0.0079
  693.0000      0.0079
  694.0000      0.0078
  695.0000      0.0077
  696.0000      0.0077
  697.0000      0.0077
  698.0000      0.0077
  699.0000      0.0076
  700.0000      0.0076
  701.0000      0.0075
  702.0000      0.0075
  703.0000      0.0074
  704.0000      0.0073
  705.0000      0.0073
  706.0000      0.0072
  707.0000      0.0071
  708.0000      0.0071
  709.0000      0.0071
  710.0000      0.0071
  711.0000      0.0071
  712.0000      0.0071
  713.0000      0.0070
  714.0000      0.0070
  715.0000      0.0070
  716.0000      0.0070
  717.0000      0.0069
  718.0000      0.0069
  719.0000      0.0069
  720.0000      0.0069
  721.0000      0.0069
  722.0000      0.0068
  723.0000      0.0068
  724.0000      0.0067
  725.0000      0.0067
  726.0000      0.0066
  727.0000      0.0065
  728.0000      0.0065
  729.0000      0.0064
  730.0000      0.0064
  731.0000      0.0063
  732.0000      0.0062
  733.0000      0.0061
  734.0000      0.0061
  735.0000      0.0061
  736.0000      0.0062
  737.0000      0.0062
  738.0000      0.0062
  739.0000      0.0061
  740.0000      0.0061
  741.0000      0.0061
  742.0000      0.0062
  743.0000      0.0061
  744.0000      0.0061
  745.0000      0.0061
  746.0000      0.0061
  747.0000      0.0061
  748.0000      0.0061
  749.0000      0.0061
  750.0000      0.0061
  751.0000      0.0061
  752.0000      0.0061
  753.0000      0.0061
  754.0000      0.0061
  755.0000      0.0061
  756.0000      0.0060
  757.0000      0.0060
  758.0000      0.0060
  759.0000      0.0059
  760.0000      0.0060
  761.0000      0.0059
  762.0000      0.0059
  763.0000      0.0058
  764.0000      0.0059
  765.0000      0.0059
  766.0000      0.0059
  767.0000      0.0058
  768.0000      0.0058
  769.0000      0.0058
  770.0000      0.0058
  771.0000      0.0058
  772.0000      0.0057
  773.0000      0.0058
  774.0000      0.0057
  775.0000      0.0057
  776.0000      0.0057
  777.0000      0.0057
  778.0000      0.0058
  779.0000      0.0058
  780.0000      0.0058
  781.0000      0.0058
  782.0000      0.0058
  783.0000      0.0059
  784.0000      0.0060
  785.0000      0.0060
  786.0000      0.0060
  787.0000      0.0061
  788.0000      0.0061
  789.0000      0.0061
  790.0000      0.0061
  791.0000      0.0062
  792.0000      0.0062
  793.0000      0.0062
  794.0000      0.0062
  795.0000      0.0061
  796.0000      0.0061
  797.0000      0.0062
  798.0000      0.0062
  799.0000      0.0061
  800.0000      0.0060
