Start Wavelength:    200.0000
End Wavelength:    800.0000
Read Mode:  ABS
Read Average:      0.1000
Nanometer Interval:      1.0000
Time:      0.0000

  200.0000      0.7975
  201.0000      0.7634
  202.0000      0.7372
  203.0000      0.7117
  204.0000      0.6907
  205.0000      0.6722
  206.0000      0.6570
  207.0000      0.6402
  208.0000      0.6195
  209.0000      0.6022
  210.0000      0.5844
  211.0000      0.5675
  212.0000      0.5500
  213.0000      0.5288
  214.0000      0.5118
  215.0000      0.4941
  216.0000      0.4769
  217.0000      0.4585
  218.0000      0.4408
  219.0000      0.4255
  220.0000      0.4104
  221.0000      0.3940
  222.0000      0.3813
  223.0000      0.3679
  224.0000      0.3554
  225.0000      0.3435
  226.0000      0.3327
  227.0000      0.3241
  228.0000      0.3144
  229.0000      0.3053
  230.0000      0.2982
  231.0000      0.2911
  232.0000      0.2842
  233.0000      0.2773
  234.0000      0.2715
  235.0000      0.2664
  236.0000      0.2622
  237.0000      0.2575
  238.0000      0.2530
  239.0000      0.2488
  240.0000      0.2457
  241.0000      0.2415
  242.0000      0.2390
  243.0000      0.2363
  244.0000      0.2332
  245.0000      0.2306
  246.0000      0.2287
  247.0000      0.2263
  248.0000      0.2239
  249.0000      0.2224
  250.0000      0.2204
  251.0000      0.2187
  252.0000      0.2173
  253.0000      0.2150
  254.0000      0.2132
  255.0000      0.2118
  256.0000      0.2105
  257.0000      0.2092
  258.0000      0.2076
  259.0000      0.2060
  260.0000      0.2044
  261.0000      0.2028
  262.0000      0.2012
  263.0000      0.1997
  264.0000      0.1981
  265.0000      0.1964
  266.0000      0.1950
  267.0000      0.1932
  268.0000      0.1910
  269.0000      0.1894
  270.0000      0.1872
  271.0000      0.1847
  272.0000      0.1831
  273.0000      0.1811
  274.0000      0.1787
  275.0000      0.1768
  276.0000      0.1750
  277.0000      0.1728
  278.0000      0.1703
  279.0000      0.1685
  280.0000      0.1660
  281.0000      0.1635
  282.0000      0.1614
  283.0000      0.1596
  284.0000      0.1574
  285.0000      0.1544
  286.0000      0.1526
  287.0000      0.1503
  288.0000      0.1480
  289.0000      0.1454
  290.0000      0.1432
  291.0000      0.1411
  292.0000      0.1387
  293.0000      0.1363
  294.0000      0.1341
  295.0000      0.1321
  296.0000      0.1306
  297.0000      0.1287
  298.0000      0.1263
  299.0000      0.1246
  300.0000      0.1226
  301.0000      0.1205
  302.0000      0.1191
  303.0000      0.1174
  304.0000      0.1152
  305.0000      0.1133
  306.0000      0.1118
  307.0000      0.1106
  308.0000      0.1093
  309.0000      0.1077
  310.0000      0.1062
  311.0000      0.1050
  312.0000      0.1036
  313.0000      0.1028
  314.0000      0.1010
  315.0000      0.0999
  316.0000      0.0985
  317.0000      0.0981
  318.0000      0.0964
  319.0000      0.0955
  320.0000      0.0937
  321.0000      0.0928
  322.0000      0.0916
  323.0000      0.0899
  324.0000      0.0896
  325.0000      0.0884
  326.0000      0.0865
  327.0000      0.0861
  328.0000      0.0853
  329.0000      0.0845
  330.0000      0.0834
  331.0000      0.0824
  332.0000      0.0816
  333.0000      0.0805
  334.0000      0.0796
  335.0000      0.0788
  336.0000      0.0781
  337.0000      0.0771
  338.0000      0.0760
  339.0000      0.0753
  340.0000      0.0739
  341.0000      0.0735
  342.0000      0.0725
  343.0000      0.0717
  344.0000      0.0706
  345.0000      0.0705
  346.0000      0.0695
  347.0000      0.0683
  348.0000      0.0677
  349.0000      0.0672
  350.0000      0.0661
  351.0000      0.0652
  352.0000      0.0649
  353.0000      0.0643
  354.0000      0.0633
  355.0000      0.0631
  356.0000      0.0626
  357.0000      0.0596
  358.0000      0.0598
  359.0000      0.0598
  360.0000      0.0562
  361.0000      0.0551
  362.0000      0.0555
  363.0000      0.0561
  364.0000      0.0544
  365.0000      0.0547
  366.0000      0.0527
  367.0000      0.0519
  368.0000      0.0531
  369.0000      0.0526
  370.0000      0.0514
  371.0000      0.0502
  372.0000      0.0495
  373.0000      0.0508
  374.0000      0.0496
  375.0000      0.0483
  376.0000      0.0475
  377.0000      0.0475
  378.0000      0.0473
  379.0000      0.0471
  380.0000      0.0462
  381.0000      0.0446
  382.0000      0.0440
  383.0000      0.0442
  384.0000      0.0448
  385.0000      0.0436
  386.0000      0.0424
  387.0000      0.0430
  388.0000      0.0421
  389.0000      0.0424
  390.0000      0.0416
  391.0000      0.0405
  392.0000      0.0404
  393.0000      0.0401
  394.0000      0.0400
  395.0000      0.0401
  396.0000      0.0389
  397.0000      0.0389
  398.0000      0.0382
  399.0000      0.0381
  400.0000      0.0380
  401.0000      0.0376
  402.0000      0.0371
  403.0000      0.0366
  404.0000      0.0366
  405.0000      0.0368
  406.0000      0.0359
  407.0000      0.0357
  408.0000      0.0355
  409.0000      0.0351
  410.0000      0.0348
  411.0000      0.0344
  412.0000      0.0342
  413.0000      0.0342
  414.0000      0.0337
  415.0000      0.0336
  416.0000      0.0327
  417.0000      0.0323
  418.0000      0.0321
  419.0000      0.0318
  420.0000      0.0315
  421.0000      0.0313
  422.0000      0.0310
  423.0000      0.0304
  424.0000      0.0304
  425.0000      0.0301
  426.0000      0.0298
  427.0000      0.0296
  428.0000      0.0291
  429.0000      0.0290
  430.0000      0.0287
  431.0000      0.0286
  432.0000      0.0284
  433.0000      0.0282
  434.0000      0.0280
  435.0000      0.0279
  436.0000      0.0276
  437.0000      0.0274
  438.0000      0.0273
  439.0000      0.0269
  440.0000      0.0268
  441.0000      0.0265
  442.0000      0.0263
  443.0000      0.0261
  444.0000      0.0258
  445.0000      0.0256
  446.0000      0.0254
  447.0000      0.0251
  448.0000      0.0249
  449.0000      0.0247
  450.0000      0.0244
  451.0000      0.0243
  452.0000      0.0241
  453.0000      0.0238
  454.0000      0.0236
  455.0000      0.0234
  456.0000      0.0232
  457.0000      0.0230
  458.0000      0.0228
  459.0000      0.0226
  460.0000      0.0224
  461.0000      0.0222
  462.0000      0.0220
  463.0000      0.0219
  464.0000      0.0217
  465.0000      0.0216
  466.0000      0.0214
  467.0000      0.0214
  468.0000      0.0212
  469.0000      0.0210
  470.0000      0.0208
  471.0000      0.0207
  472.0000      0.0206
  473.0000      0.0204
  474.0000      0.0202
  475.0000      0.0201
  476.0000      0.0200
  477.0000      0.0198
  478.0000      0.0197
  479.0000      0.0195
  480.0000      0.0194
  481.0000      0.0193
  482.0000      0.0193
  483.0000      0.0192
  484.0000      0.0190
  485.0000      0.0190
  486.0000      0.0190
  487.0000      0.0189
  488.0000      0.0187
  489.0000      0.0187
  490.0000      0.0187
  491.0000      0.0186
  492.0000      0.0185
  493.0000      0.0185
  494.0000      0.0185
  495.0000      0.0184
  496.0000      0.0184
  497.0000      0.0183
  498.0000      0.0183
  499.0000      0.0182
  500.0000      0.0182
  501.0000      0.0182
  502.0000      0.0181
  503.0000      0.0180
  504.0000      0.0179
  505.0000      0.0179
  506.0000      0.0179
  507.0000      0.0179
  508.0000      0.0178
  509.0000      0.0178
  510.0000      0.0177
  511.0000      0.0177
  512.0000      0.0176
  513.0000      0.0175
  514.0000      0.0174
  515.0000      0.0173
  516.0000      0.0172
  517.0000      0.0172
  518.0000      0.0171
  519.0000      0.0170
  520.0000      0.0169
  521.0000      0.0170
  522.0000      0.0169
  523.0000      0.0169
  524.0000      0.0169
  525.0000      0.0169
  526.0000      0.0169
  527.0000      0.0169
  528.0000      0.0169
  529.0000      0.0170
  530.0000      0.0171
  531.0000      0.0171
  532.0000      0.0171
  533.0000      0.0171
  534.0000      0.0171
  535.0000      0.0171
  536.0000      0.0170
  537.0000      0.0170
  538.0000      0.0169
  539.0000      0.0169
  540.0000      0.0168
  541.0000      0.0167
  542.0000      0.0167
  543.0000      0.0166
  544.0000      0.0165
  545.0000      0.0165
  546.0000      0.0164
  547.0000      0.0164
  548.0000      0.0163
  549.0000      0.0162
  550.0000      0.0162
  551.0000      0.0161
  552.0000      0.0161
  553.0000      0.0160
  554.0000      0.0159
  555.0000      0.0159
  556.0000      0.0158
  557.0000      0.0140
  558.0000      0.0139
  559.0000      0.0138
  560.0000      0.0137
  561.0000      0.0136
  562.0000      0.0135
  563.0000      0.0134
  564.0000      0.0133
  565.0000      0.0132
  566.0000      0.0132
  567.0000      0.0131
  568.0000      0.0130
  569.0000      0.0130
  570.0000      0.0130
  571.0000      0.0129
  572.0000      0.0129
  573.0000      0.0128
  574.0000      0.0128
  575.0000      0.0127
  576.0000      0.0126
  577.0000      0.0126
  578.0000      0.0125
  579.0000      0.0125
  580.0000      0.0124
  581.0000      0.0124
  582.0000      0.0123
  583.0000      0.0123
  584.0000      0.0123
  585.0000      0.0122
  586.0000      0.0122
  587.0000      0.0122
  588.0000      0.0121
  589.0000      0.0121
  590.0000      0.0120
  591.0000      0.0120
  592.0000      0.0120
  593.0000      0.0119
  594.0000      0.0119
  595.0000      0.0119
  596.0000      0.0118
  597.0000      0.0118
  598.0000      0.0118
  599.0000      0.0117
  600.0000      0.0117
  601.0000      0.0116
  602.0000      0.0117
  603.0000      0.0116
  604.0000      0.0116
  605.0000      0.0116
  606.0000      0.0116
  607.0000      0.0116
  608.0000      0.0116
  609.0000      0.0116
  610.0000      0.0116
  611.0000      0.0116
  612.0000      0.0116
  613.0000      0.0117
  614.0000      0.0117
  615.0000      0.0117
  616.0000      0.0118
  617.0000      0.0118
  618.0000      0.0118
  619.0000      0.0118
  620.0000      0.0118
  621.0000      0.0118
  622.0000      0.0118
  623.0000      0.0119
  624.0000      0.0119
  625.0000      0.0119
  626.0000      0.0119
  627.0000      0.0119
  628.0000      0.0119
  629.0000      0.0119
  630.0000      0.0119
  631.0000      0.0119
  632.0000      0.0119
  633.0000      0.0119
  634.0000      0.0119
  635.0000      0.0119
  636.0000      0.0119
  637.0000      0.0119
  638.0000      0.0119
  639.0000      0.0119
  640.0000      0.0119
  641.0000      0.0118
  642.0000      0.0118
  643.0000      0.0118
  644.0000      0.0119
  645.0000      0.0118
  646.0000      0.0119
  647.0000      0.0119
  648.0000      0.0119
  649.0000      0.0120
  650.0000      0.0120
  651.0000      0.0120
  652.0000      0.0120
  653.0000      0.0120
  654.0000      0.0120
  655.0000      0.0120
  656.0000      0.0120
  657.0000      0.0120
  658.0000      0.0120
  659.0000      0.0119
  660.0000      0.0120
  661.0000      0.0120
  662.0000      0.0120
  663.0000      0.0120
  664.0000      0.0121
  665.0000      0.0121
  666.0000      0.0122
  667.0000      0.0122
  668.0000      0.0123
  669.0000      0.0123
  670.0000      0.0124
  671.0000      0.0123
  672.0000      0.0123
  673.0000      0.0124
  674.0000      0.0124
  675.0000      0.0124
  676.0000      0.0124
  677.0000      0.0123
  678.0000      0.0123
  679.0000      0.0123
  680.0000      0.0122
  681.0000      0.0122
  682.0000      0.0121
  683.0000      0.0120
  684.0000      0.0118
  685.0000      0.0117
  686.0000      0.0116
  687.0000      0.0115
  688.0000      0.0113
  689.0000      0.0112
  690.0000      0.0110
  691.0000      0.0109
  692.0000      0.0107
  693.0000      0.0106
  694.0000      0.0105
  695.0000      0.0104
  696.0000      0.0103
  697.0000      0.0102
  698.0000      0.0100
  699.0000      0.0100
  700.0000      0.0100
  701.0000      0.0099
  702.0000      0.0098
  703.0000      0.0098
  704.0000      0.0097
  705.0000      0.0096
  706.0000      0.0096
  707.0000      0.0096
  708.0000      0.0096
  709.0000      0.0097
  710.0000      0.0097
  711.0000      0.0097
  712.0000      0.0097
  713.0000      0.0097
  714.0000      0.0096
  715.0000      0.0096
  716.0000      0.0096
  717.0000      0.0096
  718.0000      0.0096
  719.0000      0.0095
  720.0000      0.0095
  721.0000      0.0094
  722.0000      0.0093
  723.0000      0.0093
  724.0000      0.0092
  725.0000      0.0091
  726.0000      0.0089
  727.0000      0.0089
  728.0000      0.0089
  729.0000      0.0088
  730.0000      0.0088
  731.0000      0.0087
  732.0000      0.0086
  733.0000      0.0085
  734.0000      0.0085
  735.0000      0.0084
  736.0000      0.0090
  737.0000      0.0089
  738.0000      0.0089
  739.0000      0.0089
  740.0000      0.0089
  741.0000      0.0090
  742.0000      0.0090
  743.0000      0.0089
  744.0000      0.0089
  745.0000      0.0089
  746.0000      0.0089
  747.0000      0.0089
  748.0000      0.0089
  749.0000      0.0089
  750.0000      0.0089
  751.0000      0.0089
  752.0000      0.0089
  753.0000      0.0089
  754.0000      0.0088
  755.0000      0.0088
  756.0000      0.0087
  757.0000      0.0087
  758.0000      0.0088
  759.0000      0.0088
  760.0000      0.0088
  761.0000      0.0088
  762.0000      0.0089
  763.0000      0.0089
  764.0000      0.0089
  765.0000      0.0089
  766.0000      0.0089
  767.0000      0.0090
  768.0000      0.0090
  769.0000      0.0090
  770.0000      0.0090
  771.0000      0.0091
  772.0000      0.0090
  773.0000      0.0091
  774.0000      0.0091
  775.0000      0.0091
  776.0000      0.0091
  777.0000      0.0091
  778.0000      0.0091
  779.0000      0.0091
  780.0000      0.0090
  781.0000      0.0090
  782.0000      0.0090
  783.0000      0.0090
  784.0000      0.0090
  785.0000      0.0090
  786.0000      0.0090
  787.0000      0.0090
  788.0000      0.0090
  789.0000      0.0090
  790.0000      0.0089
  791.0000      0.0089
  792.0000      0.0089
  793.0000      0.0088
  794.0000      0.0088
  795.0000      0.0087
  796.0000      0.0087
  797.0000      0.0087
  798.0000      0.0087
  799.0000      0.0087
  800.0000      0.0085
