Start Wavelength:    200.0000
End Wavelength:    800.0000
Read Mode:  ABS
Read Average:      0.1000
Nanometer Interval:      1.0000
Time:      0.0000

  200.0000      1.3252
  201.0000      1.2678
  202.0000      1.2326
  203.0000      1.2080
  204.0000      1.1749
  205.0000      1.1568
  206.0000      1.1301
  207.0000      1.1090
  208.0000      1.0738
  209.0000      1.0369
  210.0000      1.0046
  211.0000      0.9742
  212.0000      0.9378
  213.0000      0.8947
  214.0000      0.8583
  215.0000      0.8210
  216.0000      0.7829
  217.0000      0.7437
  218.0000      0.7082
  219.0000      0.6718
  220.0000      0.6371
  221.0000      0.6029
  222.0000      0.5739
  223.0000      0.5464
  224.0000      0.5194
  225.0000      0.4930
  226.0000      0.4712
  227.0000      0.4514
  228.0000      0.4331
  229.0000      0.4152
  230.0000      0.3992
  231.0000      0.3858
  232.0000      0.3736
  233.0000      0.3614
  234.0000      0.3516
  235.0000      0.3426
  236.0000      0.3344
  237.0000      0.3269
  238.0000      0.3203
  239.0000      0.3143
  240.0000      0.3087
  241.0000      0.3030
  242.0000      0.2988
  243.0000      0.2948
  244.0000      0.2913
  245.0000      0.2871
  246.0000      0.2839
  247.0000      0.2807
  248.0000      0.2782
  249.0000      0.2757
  250.0000      0.2734
  251.0000      0.2713
  252.0000      0.2685
  253.0000      0.2665
  254.0000      0.2645
  255.0000      0.2629
  256.0000      0.2607
  257.0000      0.2587
  258.0000      0.2567
  259.0000      0.2552
  260.0000      0.2534
  261.0000      0.2520
  262.0000      0.2496
  263.0000      0.2472
  264.0000      0.2459
  265.0000      0.2440
  266.0000      0.2423
  267.0000      0.2403
  268.0000      0.2378
  269.0000      0.2359
  270.0000      0.2342
  271.0000      0.2319
  272.0000      0.2302
  273.0000      0.2271
  274.0000      0.2250
  275.0000      0.2236
  276.0000      0.2214
  277.0000      0.2191
  278.0000      0.2163
  279.0000      0.2143
  280.0000      0.2117
  281.0000      0.2090
  282.0000      0.2066
  283.0000      0.2040
  284.0000      0.2008
  285.0000      0.1983
  286.0000      0.1960
  287.0000      0.1928
  288.0000      0.1911
  289.0000      0.1875
  290.0000      0.1852
  291.0000      0.1823
  292.0000      0.1799
  293.0000      0.1774
  294.0000      0.1752
  295.0000      0.1725
  296.0000      0.1699
  297.0000      0.1675
  298.0000      0.1652
  299.0000      0.1636
  300.0000      0.1610
  301.0000      0.1584
  302.0000      0.1570
  303.0000      0.1546
  304.0000      0.1523
  305.0000      0.1504
  306.0000      0.1484
  307.0000      0.1468
  308.0000      0.1450
  309.0000      0.1436
  310.0000      0.1419
  311.0000      0.1393
  312.0000      0.1380
  313.0000      0.1367
  314.0000      0.1346
  315.0000      0.1338
  316.0000      0.1312
  317.0000      0.1297
  318.0000      0.1274
  319.0000      0.1272
  320.0000      0.1259
  321.0000      0.1246
  322.0000      0.1230
  323.0000      0.1208
  324.0000      0.1200
  325.0000      0.1187
  326.0000      0.1171
  327.0000      0.1157
  328.0000      0.1142
  329.0000      0.1127
  330.0000      0.1120
  331.0000      0.1104
  332.0000      0.1091
  333.0000      0.1076
  334.0000      0.1055
  335.0000      0.1046
  336.0000      0.1041
  337.0000      0.1028
  338.0000      0.1009
  339.0000      0.0996
  340.0000      0.0989
  341.0000      0.0976
  342.0000      0.0968
  343.0000      0.0950
  344.0000      0.0939
  345.0000      0.0928
  346.0000      0.0921
  347.0000      0.0910
  348.0000      0.0900
  349.0000      0.0887
  350.0000      0.0876
  351.0000      0.0870
  352.0000      0.0859
  353.0000      0.0850
  354.0000      0.0840
  355.0000      0.0828
  356.0000      0.0822
  357.0000      0.0806
  358.0000      0.0811
  359.0000      0.0802
  360.0000      0.0781
  361.0000      0.0757
  362.0000      0.0759
  363.0000      0.0777
  364.0000      0.0754
  365.0000      0.0749
  366.0000      0.0721
  367.0000      0.0727
  368.0000      0.0730
  369.0000      0.0715
  370.0000      0.0716
  371.0000      0.0688
  372.0000      0.0684
  373.0000      0.0694
  374.0000      0.0692
  375.0000      0.0670
  376.0000      0.0659
  377.0000      0.0645
  378.0000      0.0646
  379.0000      0.0642
  380.0000      0.0628
  381.0000      0.0625
  382.0000      0.0606
  383.0000      0.0605
  384.0000      0.0612
  385.0000      0.0603
  386.0000      0.0587
  387.0000      0.0582
  388.0000      0.0574
  389.0000      0.0570
  390.0000      0.0567
  391.0000      0.0561
  392.0000      0.0552
  393.0000      0.0536
  394.0000      0.0539
  395.0000      0.0539
  396.0000      0.0528
  397.0000      0.0520
  398.0000      0.0516
  399.0000      0.0509
  400.0000      0.0507
  401.0000      0.0508
  402.0000      0.0499
  403.0000      0.0492
  404.0000      0.0486
  405.0000      0.0483
  406.0000      0.0487
  407.0000      0.0477
  408.0000      0.0470
  409.0000      0.0465
  410.0000      0.0468
  411.0000      0.0463
  412.0000      0.0457
  413.0000      0.0456
  414.0000      0.0449
  415.0000      0.0449
  416.0000      0.0441
  417.0000      0.0436
  418.0000      0.0433
  419.0000      0.0428
  420.0000      0.0425
  421.0000      0.0420
  422.0000      0.0417
  423.0000      0.0412
  424.0000      0.0409
  425.0000      0.0406
  426.0000      0.0402
  427.0000      0.0401
  428.0000      0.0394
  429.0000      0.0391
  430.0000      0.0386
  431.0000      0.0384
  432.0000      0.0380
  433.0000      0.0377
  434.0000      0.0374
  435.0000      0.0370
  436.0000      0.0366
  437.0000      0.0363
  438.0000      0.0361
  439.0000      0.0356
  440.0000      0.0355
  441.0000      0.0350
  442.0000      0.0348
  443.0000      0.0344
  444.0000      0.0342
  445.0000      0.0339
  446.0000      0.0336
  447.0000      0.0334
  448.0000      0.0332
  449.0000      0.0330
  450.0000      0.0327
  451.0000      0.0325
  452.0000      0.0322
  453.0000      0.0321
  454.0000      0.0319
  455.0000      0.0319
  456.0000      0.0319
  457.0000      0.0318
  458.0000      0.0316
  459.0000      0.0315
  460.0000      0.0312
  461.0000      0.0311
  462.0000      0.0308
  463.0000      0.0307
  464.0000      0.0305
  465.0000      0.0303
  466.0000      0.0300
  467.0000      0.0297
  468.0000      0.0295
  469.0000      0.0294
  470.0000      0.0292
  471.0000      0.0290
  472.0000      0.0289
  473.0000      0.0288
  474.0000      0.0287
  475.0000      0.0286
  476.0000      0.0285
  477.0000      0.0283
  478.0000      0.0282
  479.0000      0.0281
  480.0000      0.0279
  481.0000      0.0277
  482.0000      0.0275
  483.0000      0.0274
  484.0000      0.0272
  485.0000      0.0270
  486.0000      0.0268
  487.0000      0.0266
  488.0000      0.0265
  489.0000      0.0263
  490.0000      0.0262
  491.0000      0.0260
  492.0000      0.0259
  493.0000      0.0256
  494.0000      0.0254
  495.0000      0.0253
  496.0000      0.0253
  497.0000      0.0251
  498.0000      0.0250
  499.0000      0.0248
  500.0000      0.0246
  501.0000      0.0244
  502.0000      0.0244
  503.0000      0.0242
  504.0000      0.0241
  505.0000      0.0240
  506.0000      0.0240
  507.0000      0.0239
  508.0000      0.0238
  509.0000      0.0236
  510.0000      0.0235
  511.0000      0.0234
  512.0000      0.0233
  513.0000      0.0231
  514.0000      0.0230
  515.0000      0.0229
  516.0000      0.0228
  517.0000      0.0227
  518.0000      0.0225
  519.0000      0.0224
  520.0000      0.0222
  521.0000      0.0222
  522.0000      0.0221
  523.0000      0.0220
  524.0000      0.0220
  525.0000      0.0219
  526.0000      0.0218
  527.0000      0.0217
  528.0000      0.0217
  529.0000      0.0215
  530.0000      0.0214
  531.0000      0.0213
  532.0000      0.0213
  533.0000      0.0212
  534.0000      0.0211
  535.0000      0.0209
  536.0000      0.0208
  537.0000      0.0207
  538.0000      0.0206
  539.0000      0.0205
  540.0000      0.0203
  541.0000      0.0200
  542.0000      0.0198
  543.0000      0.0197
  544.0000      0.0196
  545.0000      0.0195
  546.0000      0.0194
  547.0000      0.0193
  548.0000      0.0192
  549.0000      0.0191
  550.0000      0.0190
  551.0000      0.0189
  552.0000      0.0188
  553.0000      0.0188
  554.0000      0.0188
  555.0000      0.0187
  556.0000      0.0186
  557.0000      0.0181
  558.0000      0.0180
  559.0000      0.0180
  560.0000      0.0179
  561.0000      0.0178
  562.0000      0.0177
  563.0000      0.0176
  564.0000      0.0175
  565.0000      0.0175
  566.0000      0.0174
  567.0000      0.0174
  568.0000      0.0173
  569.0000      0.0171
  570.0000      0.0170
  571.0000      0.0170
  572.0000      0.0170
  573.0000      0.0168
  574.0000      0.0168
  575.0000      0.0167
  576.0000      0.0166
  577.0000      0.0165
  578.0000      0.0164
  579.0000      0.0163
  580.0000      0.0162
  581.0000      0.0162
  582.0000      0.0160
  583.0000      0.0159
  584.0000      0.0159
  585.0000      0.0158
  586.0000      0.0158
  587.0000      0.0158
  588.0000      0.0157
  589.0000      0.0157
  590.0000      0.0157
  591.0000      0.0157
  592.0000      0.0156
  593.0000      0.0156
  594.0000      0.0154
  595.0000      0.0154
  596.0000      0.0153
  597.0000      0.0152
  598.0000      0.0151
  599.0000      0.0151
  600.0000      0.0150
  601.0000      0.0150
  602.0000      0.0150
  603.0000      0.0149
  604.0000      0.0149
  605.0000      0.0148
  606.0000      0.0148
  607.0000      0.0147
  608.0000      0.0147
  609.0000      0.0147
  610.0000      0.0147
  611.0000      0.0147
  612.0000      0.0147
  613.0000      0.0147
  614.0000      0.0147
  615.0000      0.0147
  616.0000      0.0147
  617.0000      0.0147
  618.0000      0.0147
  619.0000      0.0146
  620.0000      0.0145
  621.0000      0.0145
  622.0000      0.0144
  623.0000      0.0144
  624.0000      0.0144
  625.0000      0.0144
  626.0000      0.0144
  627.0000      0.0143
  628.0000      0.0143
  629.0000      0.0142
  630.0000      0.0142
  631.0000      0.0141
  632.0000      0.0141
  633.0000      0.0140
  634.0000      0.0140
  635.0000      0.0140
  636.0000      0.0139
  637.0000      0.0139
  638.0000      0.0138
  639.0000      0.0138
  640.0000      0.0137
  641.0000      0.0137
  642.0000      0.0136
  643.0000      0.0135
  644.0000      0.0135
  645.0000      0.0135
  646.0000      0.0134
  647.0000      0.0134
  648.0000      0.0134
  649.0000      0.0134
  650.0000      0.0134
  651.0000      0.0134
  652.0000      0.0133
  653.0000      0.0133
  654.0000      0.0133
  655.0000      0.0133
  656.0000      0.0133
  657.0000      0.0133
  658.0000      0.0133
  659.0000      0.0132
  660.0000      0.0132
  661.0000      0.0131
  662.0000      0.0131
  663.0000      0.0130
  664.0000      0.0129
  665.0000      0.0130
  666.0000      0.0129
  667.0000      0.0128
  668.0000      0.0128
  669.0000      0.0127
  670.0000      0.0127
  671.0000      0.0126
  672.0000      0.0125
  673.0000      0.0125
  674.0000      0.0124
  675.0000      0.0124
  676.0000      0.0123
  677.0000      0.0122
  678.0000      0.0122
  679.0000      0.0121
  680.0000      0.0121
  681.0000      0.0121
  682.0000      0.0121
  683.0000      0.0121
  684.0000      0.0120
  685.0000      0.0120
  686.0000      0.0120
  687.0000      0.0120
  688.0000      0.0120
  689.0000      0.0120
  690.0000      0.0119
  691.0000      0.0119
  692.0000      0.0119
  693.0000      0.0119
  694.0000      0.0118
  695.0000      0.0118
  696.0000      0.0118
  697.0000      0.0117
  698.0000      0.0117
  699.0000      0.0117
  700.0000      0.0116
  701.0000      0.0116
  702.0000      0.0116
  703.0000      0.0116
  704.0000      0.0115
  705.0000      0.0115
  706.0000      0.0114
  707.0000      0.0113
  708.0000      0.0113
  709.0000      0.0112
  710.0000      0.0111
  711.0000      0.0110
  712.0000      0.0109
  713.0000      0.0109
  714.0000      0.0108
  715.0000      0.0108
  716.0000      0.0107
  717.0000      0.0107
  718.0000      0.0107
  719.0000      0.0107
  720.0000      0.0107
  721.0000      0.0106
  722.0000      0.0105
  723.0000      0.0106
  724.0000      0.0105
  725.0000      0.0105
  726.0000      0.0105
  727.0000      0.0105
  728.0000      0.0105
  729.0000      0.0105
  730.0000      0.0104
  731.0000      0.0104
  732.0000      0.0103
  733.0000      0.0101
  734.0000      0.0101
  735.0000      0.0100
  736.0000      0.0103
  737.0000      0.0103
  738.0000      0.0103
  739.0000      0.0103
  740.0000      0.0103
  741.0000      0.0103
  742.0000      0.0103
  743.0000      0.0103
  744.0000      0.0103
  745.0000      0.0103
  746.0000      0.0103
  747.0000      0.0103
  748.0000      0.0103
  749.0000      0.0104
  750.0000      0.0103
  751.0000      0.0103
  752.0000      0.0102
  753.0000      0.0103
  754.0000      0.0102
  755.0000      0.0103
  756.0000      0.0103
  757.0000      0.0103
  758.0000      0.0103
  759.0000      0.0103
  760.0000      0.0103
  761.0000      0.0103
  762.0000      0.0103
  763.0000      0.0103
  764.0000      0.0104
  765.0000      0.0104
  766.0000      0.0104
  767.0000      0.0104
  768.0000      0.0103
  769.0000      0.0103
  770.0000      0.0103
  771.0000      0.0103
  772.0000      0.0103
  773.0000      0.0103
  774.0000      0.0103
  775.0000      0.0102
  776.0000      0.0102
  777.0000      0.0102
  778.0000      0.0102
  779.0000      0.0101
  780.0000      0.0101
  781.0000      0.0101
  782.0000      0.0101
  783.0000      0.0099
  784.0000      0.0100
  785.0000      0.0099
  786.0000      0.0100
  787.0000      0.0100
  788.0000      0.0100
  789.0000      0.0100
  790.0000      0.0099
  791.0000      0.0100
  792.0000      0.0100
  793.0000      0.0099
  794.0000      0.0099
  795.0000      0.0098
  796.0000      0.0098
  797.0000      0.0098
  798.0000      0.0098
  799.0000      0.0097
  800.0000      0.0096
