Start Wavelength:    200.0000
End Wavelength:    800.0000
Read Mode:  ABS
Read Average:      0.1000
Nanometer Interval:      1.0000
Time:      0.0000

  200.0000      0.6710
  201.0000      0.6202
  202.0000      0.5936
  203.0000      0.5671
  204.0000      0.5430
  205.0000      0.5256
  206.0000      0.5121
  207.0000      0.4953
  208.0000      0.4834
  209.0000      0.4691
  210.0000      0.4565
  211.0000      0.4459
  212.0000      0.4356
  213.0000      0.4238
  214.0000      0.4124
  215.0000      0.4027
  216.0000      0.3942
  217.0000      0.3839
  218.0000      0.3751
  219.0000      0.3665
  220.0000      0.3582
  221.0000      0.3504
  222.0000      0.3430
  223.0000      0.3362
  224.0000      0.3283
  225.0000      0.3216
  226.0000      0.3163
  227.0000      0.3098
  228.0000      0.3039
  229.0000      0.2977
  230.0000      0.2923
  231.0000      0.2870
  232.0000      0.2822
  233.0000      0.2766
  234.0000      0.2715
  235.0000      0.2671
  236.0000      0.2629
  237.0000      0.2581
  238.0000      0.2543
  239.0000      0.2505
  240.0000      0.2472
  241.0000      0.2434
  242.0000      0.2406
  243.0000      0.2381
  244.0000      0.2351
  245.0000      0.2322
  246.0000      0.2303
  247.0000      0.2280
  248.0000      0.2260
  249.0000      0.2242
  250.0000      0.2220
  251.0000      0.2205
  252.0000      0.2190
  253.0000      0.2172
  254.0000      0.2151
  255.0000      0.2141
  256.0000      0.2127
  257.0000      0.2109
  258.0000      0.2100
  259.0000      0.2085
  260.0000      0.2068
  261.0000      0.2053
  262.0000      0.2037
  263.0000      0.2024
  264.0000      0.2002
  265.0000      0.1984
  266.0000      0.1970
  267.0000      0.1950
  268.0000      0.1934
  269.0000      0.1912
  270.0000      0.1889
  271.0000      0.1868
  272.0000      0.1851
  273.0000      0.1830
  274.0000      0.1802
  275.0000      0.1782
  276.0000      0.1769
  277.0000      0.1738
  278.0000      0.1714
  279.0000      0.1698
  280.0000      0.1667
  281.0000      0.1644
  282.0000      0.1619
  283.0000      0.1596
  284.0000      0.1564
  285.0000      0.1539
  286.0000      0.1518
  287.0000      0.1486
  288.0000      0.1463
  289.0000      0.1438
  290.0000      0.1416
  291.0000      0.1393
  292.0000      0.1370
  293.0000      0.1347
  294.0000      0.1319
  295.0000      0.1300
  296.0000      0.1281
  297.0000      0.1257
  298.0000      0.1236
  299.0000      0.1219
  300.0000      0.1196
  301.0000      0.1174
  302.0000      0.1163
  303.0000      0.1144
  304.0000      0.1119
  305.0000      0.1101
  306.0000      0.1088
  307.0000      0.1074
  308.0000      0.1058
  309.0000      0.1039
  310.0000      0.1023
  311.0000      0.1010
  312.0000      0.0996
  313.0000      0.0987
  314.0000      0.0963
  315.0000      0.0956
  316.0000      0.0936
  317.0000      0.0930
  318.0000      0.0918
  319.0000      0.0903
  320.0000      0.0886
  321.0000      0.0885
  322.0000      0.0876
  323.0000      0.0856
  324.0000      0.0848
  325.0000      0.0838
  326.0000      0.0823
  327.0000      0.0814
  328.0000      0.0800
  329.0000      0.0792
  330.0000      0.0782
  331.0000      0.0774
  332.0000      0.0762
  333.0000      0.0752
  334.0000      0.0736
  335.0000      0.0727
  336.0000      0.0725
  337.0000      0.0713
  338.0000      0.0698
  339.0000      0.0691
  340.0000      0.0680
  341.0000      0.0680
  342.0000      0.0671
  343.0000      0.0659
  344.0000      0.0646
  345.0000      0.0647
  346.0000      0.0638
  347.0000      0.0631
  348.0000      0.0622
  349.0000      0.0610
  350.0000      0.0605
  351.0000      0.0597
  352.0000      0.0594
  353.0000      0.0585
  354.0000      0.0573
  355.0000      0.0571
  356.0000      0.0567
  357.0000      0.0567
  358.0000      0.0565
  359.0000      0.0553
  360.0000      0.0540
  361.0000      0.0535
  362.0000      0.0515
  363.0000      0.0534
  364.0000      0.0517
  365.0000      0.0510
  366.0000      0.0506
  367.0000      0.0497
  368.0000      0.0507
  369.0000      0.0493
  370.0000      0.0493
  371.0000      0.0482
  372.0000      0.0466
  373.0000      0.0479
  374.0000      0.0472
  375.0000      0.0462
  376.0000      0.0445
  377.0000      0.0445
  378.0000      0.0445
  379.0000      0.0444
  380.0000      0.0432
  381.0000      0.0423
  382.0000      0.0408
  383.0000      0.0419
  384.0000      0.0420
  385.0000      0.0416
  386.0000      0.0404
  387.0000      0.0395
  388.0000      0.0393
  389.0000      0.0394
  390.0000      0.0391
  391.0000      0.0379
  392.0000      0.0369
  393.0000      0.0374
  394.0000      0.0371
  395.0000      0.0372
  396.0000      0.0361
  397.0000      0.0359
  398.0000      0.0352
  399.0000      0.0348
  400.0000      0.0351
  401.0000      0.0345
  402.0000      0.0337
  403.0000      0.0335
  404.0000      0.0336
  405.0000      0.0335
  406.0000      0.0329
  407.0000      0.0321
  408.0000      0.0323
  409.0000      0.0316
  410.0000      0.0315
  411.0000      0.0315
  412.0000      0.0309
  413.0000      0.0310
  414.0000      0.0305
  415.0000      0.0304
  416.0000      0.0294
  417.0000      0.0290
  418.0000      0.0288
  419.0000      0.0285
  420.0000      0.0283
  421.0000      0.0278
  422.0000      0.0276
  423.0000      0.0272
  424.0000      0.0270
  425.0000      0.0268
  426.0000      0.0265
  427.0000      0.0262
  428.0000      0.0259
  429.0000      0.0257
  430.0000      0.0254
  431.0000      0.0251
  432.0000      0.0249
  433.0000      0.0247
  434.0000      0.0243
  435.0000      0.0241
  436.0000      0.0238
  437.0000      0.0236
  438.0000      0.0234
  439.0000      0.0232
  440.0000      0.0231
  441.0000      0.0228
  442.0000      0.0227
  443.0000      0.0225
  444.0000      0.0224
  445.0000      0.0222
  446.0000      0.0220
  447.0000      0.0218
  448.0000      0.0217
  449.0000      0.0215
  450.0000      0.0212
  451.0000      0.0212
  452.0000      0.0210
  453.0000      0.0209
  454.0000      0.0206
  455.0000      0.0206
  456.0000      0.0203
  457.0000      0.0201
  458.0000      0.0200
  459.0000      0.0199
  460.0000      0.0198
  461.0000      0.0196
  462.0000      0.0195
  463.0000      0.0195
  464.0000      0.0193
  465.0000      0.0192
  466.0000      0.0190
  467.0000      0.0189
  468.0000      0.0188
  469.0000      0.0187
  470.0000      0.0185
  471.0000      0.0184
  472.0000      0.0183
  473.0000      0.0183
  474.0000      0.0182
  475.0000      0.0181
  476.0000      0.0180
  477.0000      0.0178
  478.0000      0.0179
  479.0000      0.0178
  480.0000      0.0178
  481.0000      0.0176
  482.0000      0.0175
  483.0000      0.0174
  484.0000      0.0173
  485.0000      0.0172
  486.0000      0.0172
  487.0000      0.0170
  488.0000      0.0169
  489.0000      0.0168
  490.0000      0.0168
  491.0000      0.0167
  492.0000      0.0166
  493.0000      0.0165
  494.0000      0.0165
  495.0000      0.0164
  496.0000      0.0165
  497.0000      0.0164
  498.0000      0.0164
  499.0000      0.0164
  500.0000      0.0164
  501.0000      0.0163
  502.0000      0.0162
  503.0000      0.0161
  504.0000      0.0160
  505.0000      0.0160
  506.0000      0.0159
  507.0000      0.0158
  508.0000      0.0158
  509.0000      0.0158
  510.0000      0.0158
  511.0000      0.0158
  512.0000      0.0157
  513.0000      0.0155
  514.0000      0.0155
  515.0000      0.0153
  516.0000      0.0152
  517.0000      0.0151
  518.0000      0.0150
  519.0000      0.0149
  520.0000      0.0148
  521.0000      0.0147
  522.0000      0.0147
  523.0000      0.0145
  524.0000      0.0144
  525.0000      0.0144
  526.0000      0.0143
  527.0000      0.0142
  528.0000      0.0142
  529.0000      0.0142
  530.0000      0.0141
  531.0000      0.0141
  532.0000      0.0141
  533.0000      0.0140
  534.0000      0.0140
  535.0000      0.0140
  536.0000      0.0139
  537.0000      0.0139
  538.0000      0.0138
  539.0000      0.0137
  540.0000      0.0137
  541.0000      0.0136
  542.0000      0.0136
  543.0000      0.0136
  544.0000      0.0136
  545.0000      0.0136
  546.0000      0.0135
  547.0000      0.0136
  548.0000      0.0135
  549.0000      0.0135
  550.0000      0.0135
  551.0000      0.0135
  552.0000      0.0135
  553.0000      0.0135
  554.0000      0.0134
  555.0000      0.0134
  556.0000      0.0133
  557.0000      0.0124
  558.0000      0.0124
  559.0000      0.0125
  560.0000      0.0124
  561.0000      0.0124
  562.0000      0.0124
  563.0000      0.0123
  564.0000      0.0123
  565.0000      0.0123
  566.0000      0.0122
  567.0000      0.0121
  568.0000      0.0121
  569.0000      0.0121
  570.0000      0.0121
  571.0000      0.0121
  572.0000      0.0121
  573.0000      0.0121
  574.0000      0.0121
  575.0000      0.0122
  576.0000      0.0122
  577.0000      0.0123
  578.0000      0.0123
  579.0000      0.0124
  580.0000      0.0123
  581.0000      0.0124
  582.0000      0.0123
  583.0000      0.0123
  584.0000      0.0123
  585.0000      0.0122
  586.0000      0.0122
  587.0000      0.0123
  588.0000      0.0122
  589.0000      0.0122
  590.0000      0.0122
  591.0000      0.0123
  592.0000      0.0123
  593.0000      0.0123
  594.0000      0.0122
  595.0000      0.0121
  596.0000      0.0120
  597.0000      0.0120
  598.0000      0.0119
  599.0000      0.0118
  600.0000      0.0118
  601.0000      0.0118
  602.0000      0.0118
  603.0000      0.0117
  604.0000      0.0117
  605.0000      0.0116
  606.0000      0.0116
  607.0000      0.0116
  608.0000      0.0115
  609.0000      0.0113
  610.0000      0.0111
  611.0000      0.0110
  612.0000      0.0109
  613.0000      0.0107
  614.0000      0.0106
  615.0000      0.0105
  616.0000      0.0104
  617.0000      0.0104
  618.0000      0.0104
  619.0000      0.0104
  620.0000      0.0103
  621.0000      0.0103
  622.0000      0.0102
  623.0000      0.0102
  624.0000      0.0102
  625.0000      0.0102
  626.0000      0.0102
  627.0000      0.0102
  628.0000      0.0102
  629.0000      0.0101
  630.0000      0.0100
  631.0000      0.0099
  632.0000      0.0099
  633.0000      0.0098
  634.0000      0.0098
  635.0000      0.0097
  636.0000      0.0096
  637.0000      0.0096
  638.0000      0.0095
  639.0000      0.0095
  640.0000      0.0094
  641.0000      0.0093
  642.0000      0.0093
  643.0000      0.0093
  644.0000      0.0092
  645.0000      0.0093
  646.0000      0.0092
  647.0000      0.0092
  648.0000      0.0092
  649.0000      0.0092
  650.0000      0.0093
  651.0000      0.0093
  652.0000      0.0093
  653.0000      0.0094
  654.0000      0.0094
  655.0000      0.0095
  656.0000      0.0095
  657.0000      0.0095
  658.0000      0.0095
  659.0000      0.0095
  660.0000      0.0095
  661.0000      0.0096
  662.0000      0.0097
  663.0000      0.0097
  664.0000      0.0098
  665.0000      0.0099
  666.0000      0.0100
  667.0000      0.0101
  668.0000      0.0102
  669.0000      0.0102
  670.0000      0.0103
  671.0000      0.0104
  672.0000      0.0103
  673.0000      0.0104
  674.0000      0.0104
  675.0000      0.0104
  676.0000      0.0104
  677.0000      0.0104
  678.0000      0.0104
  679.0000      0.0103
  680.0000      0.0103
  681.0000      0.0102
  682.0000      0.0102
  683.0000      0.0101
  684.0000      0.0099
  685.0000      0.0098
  686.0000      0.0096
  687.0000      0.0094
  688.0000      0.0093
  689.0000      0.0091
  690.0000      0.0090
  691.0000      0.0088
  692.0000      0.0087
  693.0000      0.0086
  694.0000      0.0085
  695.0000      0.0084
  696.0000      0.0083
  697.0000      0.0083
  698.0000      0.0083
  699.0000      0.0083
  700.0000      0.0083
  701.0000      0.0082
  702.0000      0.0082
  703.0000      0.0083
  704.0000      0.0083
  705.0000      0.0082
  706.0000      0.0082
  707.0000      0.0082
  708.0000      0.0083
  709.0000      0.0083
  710.0000      0.0082
  711.0000      0.0082
  712.0000      0.0082
  713.0000      0.0082
  714.0000      0.0082
  715.0000      0.0082
  716.0000      0.0081
  717.0000      0.0080
  718.0000      0.0079
  719.0000      0.0079
  720.0000      0.0078
  721.0000      0.0077
  722.0000      0.0075
  723.0000      0.0075
  724.0000      0.0075
  725.0000      0.0075
  726.0000      0.0074
  727.0000      0.0074
  728.0000      0.0074
  729.0000      0.0074
  730.0000      0.0074
  731.0000      0.0073
  732.0000      0.0073
  733.0000      0.0073
  734.0000      0.0074
  735.0000      0.0074
  736.0000      0.0079
  737.0000      0.0078
  738.0000      0.0078
  739.0000      0.0078
  740.0000      0.0078
  741.0000      0.0078
  742.0000      0.0078
  743.0000      0.0078
  744.0000      0.0079
  745.0000      0.0078
  746.0000      0.0078
  747.0000      0.0079
  748.0000      0.0079
  749.0000      0.0079
  750.0000      0.0080
  751.0000      0.0080
  752.0000      0.0081
  753.0000      0.0081
  754.0000      0.0081
  755.0000      0.0080
  756.0000      0.0080
  757.0000      0.0079
  758.0000      0.0078
  759.0000      0.0078
  760.0000      0.0078
  761.0000      0.0077
  762.0000      0.0077
  763.0000      0.0076
  764.0000      0.0076
  765.0000      0.0076
  766.0000      0.0076
  767.0000      0.0076
  768.0000      0.0076
  769.0000      0.0076
  770.0000      0.0076
  771.0000      0.0077
  772.0000      0.0076
  773.0000      0.0076
  774.0000      0.0076
  775.0000      0.0076
  776.0000      0.0076
  777.0000      0.0077
  778.0000      0.0076
  779.0000      0.0076
  780.0000      0.0076
  781.0000      0.0076
  782.0000      0.0076
  783.0000      0.0075
  784.0000      0.0075
  785.0000      0.0075
  786.0000      0.0075
  787.0000      0.0074
  788.0000      0.0073
  789.0000      0.0073
  790.0000      0.0072
  791.0000      0.0072
  792.0000      0.0072
  793.0000      0.0071
  794.0000      0.0071
  795.0000      0.0070
  796.0000      0.0069
  797.0000      0.0069
  798.0000      0.0068
  799.0000      0.0068
  800.0000      0.0067
