Start Wavelength:    200.0000
End Wavelength:    800.0000
Read Mode:  ABS
Read Average:      0.1000
Nanometer Interval:      1.0000
Time:      0.0000

  200.0000      0.7851
  201.0000      0.7445
  202.0000      0.7173
  203.0000      0.6934
  204.0000      0.6725
  205.0000      0.6568
  206.0000      0.6421
  207.0000      0.6270
  208.0000      0.6124
  209.0000      0.5979
  210.0000      0.5862
  211.0000      0.5742
  212.0000      0.5637
  213.0000      0.5493
  214.0000      0.5372
  215.0000      0.5258
  216.0000      0.5156
  217.0000      0.5037
  218.0000      0.4940
  219.0000      0.4841
  220.0000      0.4741
  221.0000      0.4636
  222.0000      0.4565
  223.0000      0.4484
  224.0000      0.4404
  225.0000      0.4327
  226.0000      0.4256
  227.0000      0.4182
  228.0000      0.4125
  229.0000      0.4059
  230.0000      0.4000
  231.0000      0.3942
  232.0000      0.3886
  233.0000      0.3834
  234.0000      0.3782
  235.0000      0.3739
  236.0000      0.3695
  237.0000      0.3647
  238.0000      0.3603
  239.0000      0.3566
  240.0000      0.3534
  241.0000      0.3495
  242.0000      0.3464
  243.0000      0.3439
  244.0000      0.3409
  245.0000      0.3385
  246.0000      0.3365
  247.0000      0.3341
  248.0000      0.3316
  249.0000      0.3297
  250.0000      0.3277
  251.0000      0.3262
  252.0000      0.3248
  253.0000      0.3234
  254.0000      0.3218
  255.0000      0.3203
  256.0000      0.3188
  257.0000      0.3176
  258.0000      0.3166
  259.0000      0.3155
  260.0000      0.3133
  261.0000      0.3118
  262.0000      0.3106
  263.0000      0.3091
  264.0000      0.3075
  265.0000      0.3062
  266.0000      0.3044
  267.0000      0.3022
  268.0000      0.3005
  269.0000      0.2994
  270.0000      0.2969
  271.0000      0.2950
  272.0000      0.2927
  273.0000      0.2905
  274.0000      0.2885
  275.0000      0.2872
  276.0000      0.2854
  277.0000      0.2826
  278.0000      0.2800
  279.0000      0.2792
  280.0000      0.2762
  281.0000      0.2738
  282.0000      0.2716
  283.0000      0.2696
  284.0000      0.2668
  285.0000      0.2647
  286.0000      0.2631
  287.0000      0.2598
  288.0000      0.2577
  289.0000      0.2553
  290.0000      0.2526
  291.0000      0.2509
  292.0000      0.2487
  293.0000      0.2470
  294.0000      0.2449
  295.0000      0.2423
  296.0000      0.2412
  297.0000      0.2385
  298.0000      0.2365
  299.0000      0.2353
  300.0000      0.2329
  301.0000      0.2312
  302.0000      0.2303
  303.0000      0.2284
  304.0000      0.2261
  305.0000      0.2246
  306.0000      0.2236
  307.0000      0.2221
  308.0000      0.2207
  309.0000      0.2202
  310.0000      0.2185
  311.0000      0.2167
  312.0000      0.2158
  313.0000      0.2153
  314.0000      0.2133
  315.0000      0.2123
  316.0000      0.2117
  317.0000      0.2103
  318.0000      0.2085
  319.0000      0.2082
  320.0000      0.2071
  321.0000      0.2062
  322.0000      0.2055
  323.0000      0.2034
  324.0000      0.2031
  325.0000      0.2014
  326.0000      0.2002
  327.0000      0.2001
  328.0000      0.1986
  329.0000      0.1972
  330.0000      0.1961
  331.0000      0.1955
  332.0000      0.1943
  333.0000      0.1932
  334.0000      0.1924
  335.0000      0.1912
  336.0000      0.1905
  337.0000      0.1895
  338.0000      0.1885
  339.0000      0.1878
  340.0000      0.1863
  341.0000      0.1858
  342.0000      0.1848
  343.0000      0.1841
  344.0000      0.1828
  345.0000      0.1828
  346.0000      0.1817
  347.0000      0.1808
  348.0000      0.1803
  349.0000      0.1797
  350.0000      0.1790
  351.0000      0.1778
  352.0000      0.1774
  353.0000      0.1766
  354.0000      0.1758
  355.0000      0.1755
  356.0000      0.1751
  357.0000      0.1748
  358.0000      0.1742
  359.0000      0.1727
  360.0000      0.1724
  361.0000      0.1718
  362.0000      0.1700
  363.0000      0.1715
  364.0000      0.1684
  365.0000      0.1684
  366.0000      0.1686
  367.0000      0.1683
  368.0000      0.1677
  369.0000      0.1659
  370.0000      0.1657
  371.0000      0.1655
  372.0000      0.1647
  373.0000      0.1664
  374.0000      0.1634
  375.0000      0.1628
  376.0000      0.1632
  377.0000      0.1622
  378.0000      0.1622
  379.0000      0.1621
  380.0000      0.1596
  381.0000      0.1599
  382.0000      0.1586
  383.0000      0.1592
  384.0000      0.1594
  385.0000      0.1584
  386.0000      0.1570
  387.0000      0.1574
  388.0000      0.1567
  389.0000      0.1565
  390.0000      0.1571
  391.0000      0.1555
  392.0000      0.1542
  393.0000      0.1546
  394.0000      0.1539
  395.0000      0.1545
  396.0000      0.1533
  397.0000      0.1530
  398.0000      0.1520
  399.0000      0.1527
  400.0000      0.1531
  401.0000      0.1526
  402.0000      0.1516
  403.0000      0.1509
  404.0000      0.1509
  405.0000      0.1511
  406.0000      0.1505
  407.0000      0.1500
  408.0000      0.1496
  409.0000      0.1491
  410.0000      0.1492
  411.0000      0.1494
  412.0000      0.1492
  413.0000      0.1487
  414.0000      0.1483
  415.0000      0.1483
  416.0000      0.1511
  417.0000      0.1504
  418.0000      0.1503
  419.0000      0.1499
  420.0000      0.1496
  421.0000      0.1493
  422.0000      0.1491
  423.0000      0.1486
  424.0000      0.1483
  425.0000      0.1480
  426.0000      0.1478
  427.0000      0.1475
  428.0000      0.1471
  429.0000      0.1469
  430.0000      0.1467
  431.0000      0.1466
  432.0000      0.1463
  433.0000      0.1461
  434.0000      0.1459
  435.0000      0.1458
  436.0000      0.1455
  437.0000      0.1456
  438.0000      0.1451
  439.0000      0.1447
  440.0000      0.1443
  441.0000      0.1438
  442.0000      0.1435
  443.0000      0.1432
  444.0000      0.1429
  445.0000      0.1426
  446.0000      0.1423
  447.0000      0.1419
  448.0000      0.1417
  449.0000      0.1414
  450.0000      0.1410
  451.0000      0.1407
  452.0000      0.1402
  453.0000      0.1398
  454.0000      0.1394
  455.0000      0.1390
  456.0000      0.1386
  457.0000      0.1382
  458.0000      0.1379
  459.0000      0.1378
  460.0000      0.1379
  461.0000      0.1382
  462.0000      0.1388
  463.0000      0.1395
  464.0000      0.1404
  465.0000      0.1413
  466.0000      0.1421
  467.0000      0.1428
  468.0000      0.1433
  469.0000      0.1435
  470.0000      0.1433
  471.0000      0.1431
  472.0000      0.1428
  473.0000      0.1424
  474.0000      0.1419
  475.0000      0.1414
  476.0000      0.1409
  477.0000      0.1404
  478.0000      0.1400
  479.0000      0.1397
  480.0000      0.1392
  481.0000      0.1389
  482.0000      0.1386
  483.0000      0.1384
  484.0000      0.1381
  485.0000      0.1379
  486.0000      0.1377
  487.0000      0.1375
  488.0000      0.1374
  489.0000      0.1373
  490.0000      0.1373
  491.0000      0.1372
  492.0000      0.1371
  493.0000      0.1371
  494.0000      0.1370
  495.0000      0.1369
  496.0000      0.1369
  497.0000      0.1368
  498.0000      0.1367
  499.0000      0.1367
  500.0000      0.1366
  501.0000      0.1365
  502.0000      0.1365
  503.0000      0.1364
  504.0000      0.1364
  505.0000      0.1363
  506.0000      0.1363
  507.0000      0.1362
  508.0000      0.1361
  509.0000      0.1361
  510.0000      0.1361
  511.0000      0.1361
  512.0000      0.1360
  513.0000      0.1360
  514.0000      0.1359
  515.0000      0.1359
  516.0000      0.1358
  517.0000      0.1358
  518.0000      0.1357
  519.0000      0.1356
  520.0000      0.1355
  521.0000      0.1354
  522.0000      0.1353
  523.0000      0.1352
  524.0000      0.1352
  525.0000      0.1350
  526.0000      0.1349
  527.0000      0.1347
  528.0000      0.1345
  529.0000      0.1344
  530.0000      0.1342
  531.0000      0.1341
  532.0000      0.1340
  533.0000      0.1338
  534.0000      0.1337
  535.0000      0.1336
  536.0000      0.1335
  537.0000      0.1334
  538.0000      0.1333
  539.0000      0.1331
  540.0000      0.1331
  541.0000      0.1330
  542.0000      0.1329
  543.0000      0.1327
  544.0000      0.1325
  545.0000      0.1324
  546.0000      0.1322
  547.0000      0.1320
  548.0000      0.1317
  549.0000      0.1315
  550.0000      0.1312
  551.0000      0.1310
  552.0000      0.1309
  553.0000      0.1308
  554.0000      0.1309
  555.0000      0.1309
  556.0000      0.1309
  557.0000      0.1333
  558.0000      0.1334
  559.0000      0.1334
  560.0000      0.1333
  561.0000      0.1333
  562.0000      0.1333
  563.0000      0.1332
  564.0000      0.1331
  565.0000      0.1329
  566.0000      0.1327
  567.0000      0.1326
  568.0000      0.1325
  569.0000      0.1324
  570.0000      0.1323
  571.0000      0.1322
  572.0000      0.1320
  573.0000      0.1319
  574.0000      0.1318
  575.0000      0.1318
  576.0000      0.1317
  577.0000      0.1316
  578.0000      0.1315
  579.0000      0.1314
  580.0000      0.1312
  581.0000      0.1311
  582.0000      0.1309
  583.0000      0.1307
  584.0000      0.1306
  585.0000      0.1304
  586.0000      0.1302
  587.0000      0.1301
  588.0000      0.1299
  589.0000      0.1297
  590.0000      0.1295
  591.0000      0.1294
  592.0000      0.1292
  593.0000      0.1290
  594.0000      0.1289
  595.0000      0.1287
  596.0000      0.1285
  597.0000      0.1284
  598.0000      0.1282
  599.0000      0.1280
  600.0000      0.1279
  601.0000      0.1278
  602.0000      0.1276
  603.0000      0.1274
  604.0000      0.1272
  605.0000      0.1271
  606.0000      0.1269
  607.0000      0.1268
  608.0000      0.1267
  609.0000      0.1265
  610.0000      0.1263
  611.0000      0.1262
  612.0000      0.1261
  613.0000      0.1258
  614.0000      0.1256
  615.0000      0.1254
  616.0000      0.1253
  617.0000      0.1252
  618.0000      0.1250
  619.0000      0.1248
  620.0000      0.1247
  621.0000      0.1246
  622.0000      0.1245
  623.0000      0.1244
  624.0000      0.1243
  625.0000      0.1243
  626.0000      0.1242
  627.0000      0.1243
  628.0000      0.1243
  629.0000      0.1243
  630.0000      0.1242
  631.0000      0.1242
  632.0000      0.1242
  633.0000      0.1243
  634.0000      0.1243
  635.0000      0.1243
  636.0000      0.1243
  637.0000      0.1242
  638.0000      0.1241
  639.0000      0.1240
  640.0000      0.1239
  641.0000      0.1237
  642.0000      0.1236
  643.0000      0.1235
  644.0000      0.1233
  645.0000      0.1232
  646.0000      0.1230
  647.0000      0.1228
  648.0000      0.1227
  649.0000      0.1225
  650.0000      0.1224
  651.0000      0.1222
  652.0000      0.1221
  653.0000      0.1220
  654.0000      0.1218
  655.0000      0.1217
  656.0000      0.1215
  657.0000      0.1214
  658.0000      0.1212
  659.0000      0.1211
  660.0000      0.1210
  661.0000      0.1208
  662.0000      0.1207
  663.0000      0.1206
  664.0000      0.1205
  665.0000      0.1205
  666.0000      0.1203
  667.0000      0.1202
  668.0000      0.1202
  669.0000      0.1201
  670.0000      0.1201
  671.0000      0.1200
  672.0000      0.1200
  673.0000      0.1199
  674.0000      0.1198
  675.0000      0.1197
  676.0000      0.1197
  677.0000      0.1196
  678.0000      0.1195
  679.0000      0.1194
  680.0000      0.1193
  681.0000      0.1192
  682.0000      0.1190
  683.0000      0.1189
  684.0000      0.1187
  685.0000      0.1186
  686.0000      0.1184
  687.0000      0.1182
  688.0000      0.1181
  689.0000      0.1180
  690.0000      0.1178
  691.0000      0.1177
  692.0000      0.1175
  693.0000      0.1174
  694.0000      0.1172
  695.0000      0.1170
  696.0000      0.1168
  697.0000      0.1167
  698.0000      0.1165
  699.0000      0.1163
  700.0000      0.1161
  701.0000      0.1159
  702.0000      0.1158
  703.0000      0.1155
  704.0000      0.1153
  705.0000      0.1152
  706.0000      0.1149
  707.0000      0.1148
  708.0000      0.1146
  709.0000      0.1143
  710.0000      0.1141
  711.0000      0.1139
  712.0000      0.1136
  713.0000      0.1134
  714.0000      0.1131
  715.0000      0.1128
  716.0000      0.1126
  717.0000      0.1124
  718.0000      0.1122
  719.0000      0.1120
  720.0000      0.1117
  721.0000      0.1115
  722.0000      0.1112
  723.0000      0.1110
  724.0000      0.1107
  725.0000      0.1104
  726.0000      0.1100
  727.0000      0.1096
  728.0000      0.1093
  729.0000      0.1090
  730.0000      0.1087
  731.0000      0.1083
  732.0000      0.1080
  733.0000      0.1077
  734.0000      0.1074
  735.0000      0.1072
  736.0000      0.1009
  737.0000      0.1006
  738.0000      0.1004
  739.0000      0.1002
  740.0000      0.1000
  741.0000      0.0998
  742.0000      0.0996
  743.0000      0.0996
  744.0000      0.0994
  745.0000      0.0993
  746.0000      0.0992
  747.0000      0.0990
  748.0000      0.0988
  749.0000      0.0987
  750.0000      0.0985
  751.0000      0.0984
  752.0000      0.0981
  753.0000      0.0979
  754.0000      0.0977
  755.0000      0.0976
  756.0000      0.0973
  757.0000      0.0971
  758.0000      0.0969
  759.0000      0.0967
  760.0000      0.0966
  761.0000      0.0962
  762.0000      0.0960
  763.0000      0.0958
  764.0000      0.0955
  765.0000      0.0953
  766.0000      0.0951
  767.0000      0.0948
  768.0000      0.0945
  769.0000      0.0943
  770.0000      0.0940
  771.0000      0.0938
  772.0000      0.0935
  773.0000      0.0933
  774.0000      0.0930
  775.0000      0.0928
  776.0000      0.0925
  777.0000      0.0924
  778.0000      0.0921
  779.0000      0.0919
  780.0000      0.0918
  781.0000      0.0915
  782.0000      0.0914
  783.0000      0.0912
  784.0000      0.0910
  785.0000      0.0908
  786.0000      0.0907
  787.0000      0.0905
  788.0000      0.0902
  789.0000      0.0901
  790.0000      0.0898
  791.0000      0.0897
  792.0000      0.0895
  793.0000      0.0892
  794.0000      0.0890
  795.0000      0.0887
  796.0000      0.0885
  797.0000      0.0883
  798.0000      0.0881
  799.0000      0.0878
  800.0000      0.0875
