Start Wavelength:    200.0000
End Wavelength:    800.0000
Read Mode:  ABS
Read Average:      0.1000
Nanometer Interval:      1.0000
Time:      0.0000

  200.0000      0.6780
  201.0000      0.6261
  202.0000      0.5992
  203.0000      0.5766
  204.0000      0.5568
  205.0000      0.5363
  206.0000      0.5219
  207.0000      0.5080
  208.0000      0.4957
  209.0000      0.4805
  210.0000      0.4677
  211.0000      0.4552
  212.0000      0.4433
  213.0000      0.4285
  214.0000      0.4164
  215.0000      0.4049
  216.0000      0.3935
  217.0000      0.3810
  218.0000      0.3691
  219.0000      0.3578
  220.0000      0.3468
  221.0000      0.3359
  222.0000      0.3252
  223.0000      0.3154
  224.0000      0.3067
  225.0000      0.2973
  226.0000      0.2889
  227.0000      0.2812
  228.0000      0.2745
  229.0000      0.2669
  230.0000      0.2607
  231.0000      0.2544
  232.0000      0.2492
  233.0000      0.2437
  234.0000      0.2391
  235.0000      0.2342
  236.0000      0.2298
  237.0000      0.2257
  238.0000      0.2224
  239.0000      0.2189
  240.0000      0.2156
  241.0000      0.2125
  242.0000      0.2103
  243.0000      0.2082
  244.0000      0.2052
  245.0000      0.2031
  246.0000      0.2011
  247.0000      0.1996
  248.0000      0.1977
  249.0000      0.1963
  250.0000      0.1945
  251.0000      0.1931
  252.0000      0.1915
  253.0000      0.1904
  254.0000      0.1891
  255.0000      0.1881
  256.0000      0.1863
  257.0000      0.1854
  258.0000      0.1843
  259.0000      0.1829
  260.0000      0.1818
  261.0000      0.1805
  262.0000      0.1789
  263.0000      0.1773
  264.0000      0.1762
  265.0000      0.1736
  266.0000      0.1723
  267.0000      0.1707
  268.0000      0.1690
  269.0000      0.1666
  270.0000      0.1648
  271.0000      0.1631
  272.0000      0.1617
  273.0000      0.1598
  274.0000      0.1577
  275.0000      0.1557
  276.0000      0.1538
  277.0000      0.1525
  278.0000      0.1496
  279.0000      0.1479
  280.0000      0.1460
  281.0000      0.1436
  282.0000      0.1413
  283.0000      0.1391
  284.0000      0.1372
  285.0000      0.1345
  286.0000      0.1324
  287.0000      0.1297
  288.0000      0.1277
  289.0000      0.1260
  290.0000      0.1238
  291.0000      0.1208
  292.0000      0.1191
  293.0000      0.1176
  294.0000      0.1157
  295.0000      0.1125
  296.0000      0.1109
  297.0000      0.1090
  298.0000      0.1069
  299.0000      0.1055
  300.0000      0.1033
  301.0000      0.1015
  302.0000      0.1004
  303.0000      0.0985
  304.0000      0.0964
  305.0000      0.0956
  306.0000      0.0938
  307.0000      0.0920
  308.0000      0.0908
  309.0000      0.0894
  310.0000      0.0887
  311.0000      0.0872
  312.0000      0.0850
  313.0000      0.0841
  314.0000      0.0832
  315.0000      0.0817
  316.0000      0.0802
  317.0000      0.0792
  318.0000      0.0781
  319.0000      0.0761
  320.0000      0.0757
  321.0000      0.0754
  322.0000      0.0738
  323.0000      0.0722
  324.0000      0.0715
  325.0000      0.0706
  326.0000      0.0689
  327.0000      0.0678
  328.0000      0.0672
  329.0000      0.0664
  330.0000      0.0648
  331.0000      0.0641
  332.0000      0.0633
  333.0000      0.0625
  334.0000      0.0612
  335.0000      0.0600
  336.0000      0.0592
  337.0000      0.0589
  338.0000      0.0574
  339.0000      0.0567
  340.0000      0.0560
  341.0000      0.0550
  342.0000      0.0543
  343.0000      0.0538
  344.0000      0.0523
  345.0000      0.0522
  346.0000      0.0516
  347.0000      0.0501
  348.0000      0.0495
  349.0000      0.0493
  350.0000      0.0483
  351.0000      0.0473
  352.0000      0.0469
  353.0000      0.0461
  354.0000      0.0458
  355.0000      0.0451
  356.0000      0.0446
  357.0000      0.0449
  358.0000      0.0450
  359.0000      0.0438
  360.0000      0.0416
  361.0000      0.0422
  362.0000      0.0420
  363.0000      0.0402
  364.0000      0.0412
  365.0000      0.0407
  366.0000      0.0409
  367.0000      0.0387
  368.0000      0.0383
  369.0000      0.0377
  370.0000      0.0390
  371.0000      0.0372
  372.0000      0.0362
  373.0000      0.0364
  374.0000      0.0353
  375.0000      0.0342
  376.0000      0.0351
  377.0000      0.0342
  378.0000      0.0343
  379.0000      0.0333
  380.0000      0.0326
  381.0000      0.0323
  382.0000      0.0327
  383.0000      0.0310
  384.0000      0.0307
  385.0000      0.0305
  386.0000      0.0306
  387.0000      0.0297
  388.0000      0.0296
  389.0000      0.0292
  390.0000      0.0289
  391.0000      0.0282
  392.0000      0.0274
  393.0000      0.0281
  394.0000      0.0277
  395.0000      0.0269
  396.0000      0.0264
  397.0000      0.0265
  398.0000      0.0263
  399.0000      0.0255
  400.0000      0.0250
  401.0000      0.0249
  402.0000      0.0248
  403.0000      0.0236
  404.0000      0.0238
  405.0000      0.0236
  406.0000      0.0236
  407.0000      0.0230
  408.0000      0.0228
  409.0000      0.0227
  410.0000      0.0221
  411.0000      0.0218
  412.0000      0.0219
  413.0000      0.0219
  414.0000      0.0214
  415.0000      0.0207
  416.0000      0.0204
  417.0000      0.0202
  418.0000      0.0199
  419.0000      0.0196
  420.0000      0.0196
  421.0000      0.0191
  422.0000      0.0189
  423.0000      0.0188
  424.0000      0.0185
  425.0000      0.0183
  426.0000      0.0181
  427.0000      0.0180
  428.0000      0.0178
  429.0000      0.0176
  430.0000      0.0173
  431.0000      0.0172
  432.0000      0.0170
  433.0000      0.0169
  434.0000      0.0169
  435.0000      0.0165
  436.0000      0.0165
  437.0000      0.0163
  438.0000      0.0161
  439.0000      0.0160
  440.0000      0.0159
  441.0000      0.0157
  442.0000      0.0155
  443.0000      0.0153
  444.0000      0.0151
  445.0000      0.0151
  446.0000      0.0148
  447.0000      0.0147
  448.0000      0.0146
  449.0000      0.0144
  450.0000      0.0142
  451.0000      0.0141
  452.0000      0.0139
  453.0000      0.0137
  454.0000      0.0136
  455.0000      0.0135
  456.0000      0.0135
  457.0000      0.0133
  458.0000      0.0131
  459.0000      0.0130
  460.0000      0.0129
  461.0000      0.0128
  462.0000      0.0127
  463.0000      0.0125
  464.0000      0.0124
  465.0000      0.0122
  466.0000      0.0121
  467.0000      0.0120
  468.0000      0.0118
  469.0000      0.0117
  470.0000      0.0117
  471.0000      0.0115
  472.0000      0.0114
  473.0000      0.0113
  474.0000      0.0112
  475.0000      0.0111
  476.0000      0.0109
  477.0000      0.0108
  478.0000      0.0107
  479.0000      0.0105
  480.0000      0.0104
  481.0000      0.0103
  482.0000      0.0102
  483.0000      0.0101
  484.0000      0.0100
  485.0000      0.0098
  486.0000      0.0098
  487.0000      0.0096
  488.0000      0.0095
  489.0000      0.0094
  490.0000      0.0093
  491.0000      0.0091
  492.0000      0.0090
  493.0000      0.0089
  494.0000      0.0089
  495.0000      0.0088
  496.0000      0.0087
  497.0000      0.0087
  498.0000      0.0086
  499.0000      0.0085
  500.0000      0.0084
  501.0000      0.0084
  502.0000      0.0083
  503.0000      0.0082
  504.0000      0.0082
  505.0000      0.0081
  506.0000      0.0080
  507.0000      0.0080
  508.0000      0.0079
  509.0000      0.0077
  510.0000      0.0077
  511.0000      0.0076
  512.0000      0.0075
  513.0000      0.0075
  514.0000      0.0074
  515.0000      0.0073
  516.0000      0.0072
  517.0000      0.0072
  518.0000      0.0072
  519.0000      0.0071
  520.0000      0.0070
  521.0000      0.0070
  522.0000      0.0069
  523.0000      0.0069
  524.0000      0.0068
  525.0000      0.0068
  526.0000      0.0067
  527.0000      0.0067
  528.0000      0.0066
  529.0000      0.0065
  530.0000      0.0065
  531.0000      0.0064
  532.0000      0.0064
  533.0000      0.0063
  534.0000      0.0063
  535.0000      0.0062
  536.0000      0.0062
  537.0000      0.0062
  538.0000      0.0061
  539.0000      0.0061
  540.0000      0.0060
  541.0000      0.0060
  542.0000      0.0059
  543.0000      0.0059
  544.0000      0.0058
  545.0000      0.0057
  546.0000      0.0056
  547.0000      0.0056
  548.0000      0.0055
  549.0000      0.0054
  550.0000      0.0054
  551.0000      0.0054
  552.0000      0.0053
  553.0000      0.0053
  554.0000      0.0052
  555.0000      0.0052
  556.0000      0.0052
  557.0000      0.0052
  558.0000      0.0051
  559.0000      0.0051
  560.0000      0.0050
  561.0000      0.0050
  562.0000      0.0050
  563.0000      0.0049
  564.0000      0.0048
  565.0000      0.0048
  566.0000      0.0047
  567.0000      0.0047
  568.0000      0.0046
  569.0000      0.0046
  570.0000      0.0045
  571.0000      0.0044
  572.0000      0.0045
  573.0000      0.0044
  574.0000      0.0044
  575.0000      0.0044
  576.0000      0.0043
  577.0000      0.0043
  578.0000      0.0043
  579.0000      0.0043
  580.0000      0.0042
  581.0000      0.0042
  582.0000      0.0042
  583.0000      0.0042
  584.0000      0.0042
  585.0000      0.0041
  586.0000      0.0041
  587.0000      0.0041
  588.0000      0.0040
  589.0000      0.0040
  590.0000      0.0039
  591.0000      0.0039
  592.0000      0.0039
  593.0000      0.0039
  594.0000      0.0039
  595.0000      0.0039
  596.0000      0.0038
  597.0000      0.0038
  598.0000      0.0038
  599.0000      0.0038
  600.0000      0.0038
  601.0000      0.0038
  602.0000      0.0038
  603.0000      0.0037
  604.0000      0.0037
  605.0000      0.0037
  606.0000      0.0037
  607.0000      0.0037
  608.0000      0.0038
  609.0000      0.0038
  610.0000      0.0038
  611.0000      0.0038
  612.0000      0.0038
  613.0000      0.0038
  614.0000      0.0037
  615.0000      0.0037
  616.0000      0.0038
  617.0000      0.0037
  618.0000      0.0037
  619.0000      0.0037
  620.0000      0.0037
  621.0000      0.0037
  622.0000      0.0036
  623.0000      0.0036
  624.0000      0.0036
  625.0000      0.0036
  626.0000      0.0036
  627.0000      0.0036
  628.0000      0.0036
  629.0000      0.0036
  630.0000      0.0036
  631.0000      0.0035
  632.0000      0.0035
  633.0000      0.0035
  634.0000      0.0035
  635.0000      0.0034
  636.0000      0.0034
  637.0000      0.0034
  638.0000      0.0033
  639.0000      0.0033
  640.0000      0.0033
  641.0000      0.0033
  642.0000      0.0032
  643.0000      0.0032
  644.0000      0.0032
  645.0000      0.0032
  646.0000      0.0031
  647.0000      0.0031
  648.0000      0.0031
  649.0000      0.0031
  650.0000      0.0031
  651.0000      0.0031
  652.0000      0.0031
  653.0000      0.0031
  654.0000      0.0031
  655.0000      0.0031
  656.0000      0.0031
  657.0000      0.0031
  658.0000      0.0031
  659.0000      0.0032
  660.0000      0.0032
  661.0000      0.0032
  662.0000      0.0033
  663.0000      0.0034
  664.0000      0.0034
  665.0000      0.0035
  666.0000      0.0036
  667.0000      0.0037
  668.0000      0.0038
  669.0000      0.0038
  670.0000      0.0039
  671.0000      0.0039
  672.0000      0.0040
  673.0000      0.0040
  674.0000      0.0041
  675.0000      0.0041
  676.0000      0.0042
  677.0000      0.0042
  678.0000      0.0042
  679.0000      0.0043
  680.0000      0.0043
  681.0000      0.0043
  682.0000      0.0043
  683.0000      0.0042
  684.0000      0.0042
  685.0000      0.0042
  686.0000      0.0041
  687.0000      0.0040
  688.0000      0.0040
  689.0000      0.0040
  690.0000      0.0039
  691.0000      0.0038
  692.0000      0.0037
  693.0000      0.0036
  694.0000      0.0035
  695.0000      0.0035
  696.0000      0.0035
  697.0000      0.0034
  698.0000      0.0034
  699.0000      0.0034
  700.0000      0.0034
  701.0000      0.0034
  702.0000      0.0034
  703.0000      0.0034
  704.0000      0.0034
  705.0000      0.0034
  706.0000      0.0034
  707.0000      0.0034
  708.0000      0.0034
  709.0000      0.0034
  710.0000      0.0034
  711.0000      0.0034
  712.0000      0.0034
  713.0000      0.0034
  714.0000      0.0034
  715.0000      0.0034
  716.0000      0.0034
  717.0000      0.0033
  718.0000      0.0033
  719.0000      0.0033
  720.0000      0.0033
  721.0000      0.0033
  722.0000      0.0033
  723.0000      0.0034
  724.0000      0.0034
  725.0000      0.0034
  726.0000      0.0033
  727.0000      0.0034
  728.0000      0.0034
  729.0000      0.0034
  730.0000      0.0034
  731.0000      0.0033
  732.0000      0.0033
  733.0000      0.0033
  734.0000      0.0033
  735.0000      0.0034
  736.0000      0.0034
  737.0000      0.0034
  738.0000      0.0034
  739.0000      0.0034
  740.0000      0.0034
  741.0000      0.0034
  742.0000      0.0035
  743.0000      0.0035
  744.0000      0.0035
  745.0000      0.0035
  746.0000      0.0036
  747.0000      0.0036
  748.0000      0.0036
  749.0000      0.0036
  750.0000      0.0036
  751.0000      0.0036
  752.0000      0.0036
  753.0000      0.0035
  754.0000      0.0035
  755.0000      0.0035
  756.0000      0.0035
  757.0000      0.0034
  758.0000      0.0035
  759.0000      0.0034
  760.0000      0.0035
  761.0000      0.0034
  762.0000      0.0034
  763.0000      0.0034
  764.0000      0.0034
  765.0000      0.0033
  766.0000      0.0033
  767.0000      0.0032
  768.0000      0.0033
  769.0000      0.0032
  770.0000      0.0032
  771.0000      0.0032
  772.0000      0.0032
  773.0000      0.0032
  774.0000      0.0031
  775.0000      0.0031
  776.0000      0.0032
  777.0000      0.0032
  778.0000      0.0031
  779.0000      0.0031
  780.0000      0.0031
  781.0000      0.0029
  782.0000      0.0030
  783.0000      0.0029
  784.0000      0.0029
  785.0000      0.0029
  786.0000      0.0029
  787.0000      0.0029
  788.0000      0.0029
  789.0000      0.0028
  790.0000      0.0028
  791.0000      0.0028
  792.0000      0.0027
  793.0000      0.0027
  794.0000      0.0027
  795.0000      0.0027
  796.0000      0.0027
  797.0000      0.0027
  798.0000      0.0026
  799.0000      0.0026
  800.0000      0.0026
