Start Wavelength:    200.0000
End Wavelength:    800.0000
Read Mode:  ABS
Read Average:      0.1000
Nanometer Interval:      1.0000
Time:      0.0000

  200.0000      1.0121
  201.0000      0.9526
  202.0000      0.9149
  203.0000      0.8847
  204.0000      0.8550
  205.0000      0.8279
  206.0000      0.8071
  207.0000      0.7850
  208.0000      0.7638
  209.0000      0.7440
  210.0000      0.7241
  211.0000      0.7082
  212.0000      0.6910
  213.0000      0.6736
  214.0000      0.6579
  215.0000      0.6433
  216.0000      0.6284
  217.0000      0.6138
  218.0000      0.6005
  219.0000      0.5884
  220.0000      0.5765
  221.0000      0.5634
  222.0000      0.5536
  223.0000      0.5427
  224.0000      0.5326
  225.0000      0.5220
  226.0000      0.5133
  227.0000      0.5037
  228.0000      0.4966
  229.0000      0.4864
  230.0000      0.4785
  231.0000      0.4707
  232.0000      0.4627
  233.0000      0.4548
  234.0000      0.4476
  235.0000      0.4412
  236.0000      0.4344
  237.0000      0.4278
  238.0000      0.4221
  239.0000      0.4165
  240.0000      0.4113
  241.0000      0.4060
  242.0000      0.4007
  243.0000      0.3969
  244.0000      0.3920
  245.0000      0.3883
  246.0000      0.3845
  247.0000      0.3809
  248.0000      0.3772
  249.0000      0.3743
  250.0000      0.3716
  251.0000      0.3685
  252.0000      0.3659
  253.0000      0.3623
  254.0000      0.3606
  255.0000      0.3579
  256.0000      0.3553
  257.0000      0.3527
  258.0000      0.3505
  259.0000      0.3468
  260.0000      0.3443
  261.0000      0.3418
  262.0000      0.3382
  263.0000      0.3357
  264.0000      0.3318
  265.0000      0.3293
  266.0000      0.3259
  267.0000      0.3230
  268.0000      0.3183
  269.0000      0.3153
  270.0000      0.3107
  271.0000      0.3075
  272.0000      0.3033
  273.0000      0.3001
  274.0000      0.2954
  275.0000      0.2910
  276.0000      0.2873
  277.0000      0.2829
  278.0000      0.2786
  279.0000      0.2737
  280.0000      0.2706
  281.0000      0.2651
  282.0000      0.2612
  283.0000      0.2573
  284.0000      0.2524
  285.0000      0.2478
  286.0000      0.2443
  287.0000      0.2389
  288.0000      0.2343
  289.0000      0.2312
  290.0000      0.2261
  291.0000      0.2220
  292.0000      0.2182
  293.0000      0.2145
  294.0000      0.2102
  295.0000      0.2069
  296.0000      0.2030
  297.0000      0.1994
  298.0000      0.1960
  299.0000      0.1925
  300.0000      0.1895
  301.0000      0.1856
  302.0000      0.1836
  303.0000      0.1804
  304.0000      0.1775
  305.0000      0.1745
  306.0000      0.1727
  307.0000      0.1698
  308.0000      0.1669
  309.0000      0.1642
  310.0000      0.1615
  311.0000      0.1589
  312.0000      0.1570
  313.0000      0.1548
  314.0000      0.1514
  315.0000      0.1498
  316.0000      0.1473
  317.0000      0.1450
  318.0000      0.1433
  319.0000      0.1414
  320.0000      0.1388
  321.0000      0.1376
  322.0000      0.1351
  323.0000      0.1331
  324.0000      0.1308
  325.0000      0.1294
  326.0000      0.1269
  327.0000      0.1250
  328.0000      0.1231
  329.0000      0.1210
  330.0000      0.1194
  331.0000      0.1172
  332.0000      0.1158
  333.0000      0.1135
  334.0000      0.1119
  335.0000      0.1102
  336.0000      0.1083
  337.0000      0.1065
  338.0000      0.1051
  339.0000      0.1037
  340.0000      0.1019
  341.0000      0.1005
  342.0000      0.0988
  343.0000      0.0975
  344.0000      0.0958
  345.0000      0.0946
  346.0000      0.0930
  347.0000      0.0917
  348.0000      0.0906
  349.0000      0.0892
  350.0000      0.0878
  351.0000      0.0864
  352.0000      0.0852
  353.0000      0.0839
  354.0000      0.0826
  355.0000      0.0813
  356.0000      0.0812
  357.0000      0.0796
  358.0000      0.0791
  359.0000      0.0770
  360.0000      0.0766
  361.0000      0.0758
  362.0000      0.0745
  363.0000      0.0737
  364.0000      0.0727
  365.0000      0.0704
  366.0000      0.0697
  367.0000      0.0701
  368.0000      0.0667
  369.0000      0.0675
  370.0000      0.0657
  371.0000      0.0647
  372.0000      0.0645
  373.0000      0.0639
  374.0000      0.0618
  375.0000      0.0612
  376.0000      0.0610
  377.0000      0.0585
  378.0000      0.0588
  379.0000      0.0578
  380.0000      0.0560
  381.0000      0.0557
  382.0000      0.0548
  383.0000      0.0542
  384.0000      0.0533
  385.0000      0.0531
  386.0000      0.0518
  387.0000      0.0508
  388.0000      0.0500
  389.0000      0.0496
  390.0000      0.0485
  391.0000      0.0480
  392.0000      0.0476
  393.0000      0.0467
  394.0000      0.0462
  395.0000      0.0449
  396.0000      0.0447
  397.0000      0.0442
  398.0000      0.0435
  399.0000      0.0429
  400.0000      0.0419
  401.0000      0.0415
  402.0000      0.0404
  403.0000      0.0408
  404.0000      0.0398
  405.0000      0.0396
  406.0000      0.0386
  407.0000      0.0381
  408.0000      0.0374
  409.0000      0.0368
  410.0000      0.0368
  411.0000      0.0359
  412.0000      0.0358
  413.0000      0.0351
  414.0000      0.0343
  415.0000      0.0344
  416.0000      0.0332
  417.0000      0.0330
  418.0000      0.0323
  419.0000      0.0319
  420.0000      0.0315
  421.0000      0.0310
  422.0000      0.0307
  423.0000      0.0302
  424.0000      0.0299
  425.0000      0.0293
  426.0000      0.0289
  427.0000      0.0285
  428.0000      0.0281
  429.0000      0.0278
  430.0000      0.0275
  431.0000      0.0270
  432.0000      0.0266
  433.0000      0.0262
  434.0000      0.0258
  435.0000      0.0256
  436.0000      0.0253
  437.0000      0.0249
  438.0000      0.0246
  439.0000      0.0243
  440.0000      0.0240
  441.0000      0.0236
  442.0000      0.0234
  443.0000      0.0231
  444.0000      0.0228
  445.0000      0.0225
  446.0000      0.0221
  447.0000      0.0220
  448.0000      0.0216
  449.0000      0.0213
  450.0000      0.0211
  451.0000      0.0207
  452.0000      0.0205
  453.0000      0.0202
  454.0000      0.0200
  455.0000      0.0197
  456.0000      0.0194
  457.0000      0.0193
  458.0000      0.0190
  459.0000      0.0188
  460.0000      0.0185
  461.0000      0.0184
  462.0000      0.0182
  463.0000      0.0181
  464.0000      0.0179
  465.0000      0.0177
  466.0000      0.0175
  467.0000      0.0174
  468.0000      0.0172
  469.0000      0.0170
  470.0000      0.0169
  471.0000      0.0167
  472.0000      0.0165
  473.0000      0.0164
  474.0000      0.0161
  475.0000      0.0160
  476.0000      0.0158
  477.0000      0.0157
  478.0000      0.0155
  479.0000      0.0154
  480.0000      0.0152
  481.0000      0.0150
  482.0000      0.0149
  483.0000      0.0147
  484.0000      0.0146
  485.0000      0.0144
  486.0000      0.0143
  487.0000      0.0142
  488.0000      0.0140
  489.0000      0.0139
  490.0000      0.0137
  491.0000      0.0136
  492.0000      0.0135
  493.0000      0.0134
  494.0000      0.0133
  495.0000      0.0131
  496.0000      0.0130
  497.0000      0.0128
  498.0000      0.0127
  499.0000      0.0126
  500.0000      0.0126
  501.0000      0.0125
  502.0000      0.0124
  503.0000      0.0123
  504.0000      0.0122
  505.0000      0.0121
  506.0000      0.0120
  507.0000      0.0119
  508.0000      0.0118
  509.0000      0.0117
  510.0000      0.0116
  511.0000      0.0115
  512.0000      0.0115
  513.0000      0.0113
  514.0000      0.0112
  515.0000      0.0111
  516.0000      0.0110
  517.0000      0.0110
  518.0000      0.0108
  519.0000      0.0108
  520.0000      0.0107
  521.0000      0.0106
  522.0000      0.0105
  523.0000      0.0104
  524.0000      0.0103
  525.0000      0.0102
  526.0000      0.0102
  527.0000      0.0101
  528.0000      0.0100
  529.0000      0.0099
  530.0000      0.0098
  531.0000      0.0097
  532.0000      0.0095
  533.0000      0.0094
  534.0000      0.0093
  535.0000      0.0093
  536.0000      0.0092
  537.0000      0.0091
  538.0000      0.0090
  539.0000      0.0089
  540.0000      0.0089
  541.0000      0.0088
  542.0000      0.0087
  543.0000      0.0086
  544.0000      0.0085
  545.0000      0.0084
  546.0000      0.0083
  547.0000      0.0082
  548.0000      0.0081
  549.0000      0.0080
  550.0000      0.0079
  551.0000      0.0078
  552.0000      0.0078
  553.0000      0.0077
  554.0000      0.0076
  555.0000      0.0076
  556.0000      0.0076
  557.0000      0.0080
  558.0000      0.0079
  559.0000      0.0079
  560.0000      0.0079
  561.0000      0.0079
  562.0000      0.0079
  563.0000      0.0079
  564.0000      0.0078
  565.0000      0.0078
  566.0000      0.0077
  567.0000      0.0076
  568.0000      0.0075
  569.0000      0.0075
  570.0000      0.0074
  571.0000      0.0074
  572.0000      0.0073
  573.0000      0.0073
  574.0000      0.0072
  575.0000      0.0072
  576.0000      0.0072
  577.0000      0.0072
  578.0000      0.0071
  579.0000      0.0070
  580.0000      0.0070
  581.0000      0.0070
  582.0000      0.0069
  583.0000      0.0069
  584.0000      0.0069
  585.0000      0.0068
  586.0000      0.0068
  587.0000      0.0067
  588.0000      0.0066
  589.0000      0.0065
  590.0000      0.0064
  591.0000      0.0064
  592.0000      0.0064
  593.0000      0.0063
  594.0000      0.0063
  595.0000      0.0062
  596.0000      0.0062
  597.0000      0.0061
  598.0000      0.0061
  599.0000      0.0060
  600.0000      0.0060
  601.0000      0.0060
  602.0000      0.0059
  603.0000      0.0059
  604.0000      0.0058
  605.0000      0.0057
  606.0000      0.0057
  607.0000      0.0056
  608.0000      0.0055
  609.0000      0.0055
  610.0000      0.0054
  611.0000      0.0054
  612.0000      0.0054
  613.0000      0.0053
  614.0000      0.0053
  615.0000      0.0053
  616.0000      0.0053
  617.0000      0.0053
  618.0000      0.0052
  619.0000      0.0052
  620.0000      0.0051
  621.0000      0.0051
  622.0000      0.0051
  623.0000      0.0051
  624.0000      0.0051
  625.0000      0.0050
  626.0000      0.0051
  627.0000      0.0050
  628.0000      0.0051
  629.0000      0.0051
  630.0000      0.0050
  631.0000      0.0050
  632.0000      0.0049
  633.0000      0.0049
  634.0000      0.0049
  635.0000      0.0048
  636.0000      0.0048
  637.0000      0.0047
  638.0000      0.0047
  639.0000      0.0046
  640.0000      0.0046
  641.0000      0.0046
  642.0000      0.0046
  643.0000      0.0046
  644.0000      0.0046
  645.0000      0.0046
  646.0000      0.0046
  647.0000      0.0046
  648.0000      0.0046
  649.0000      0.0046
  650.0000      0.0045
  651.0000      0.0045
  652.0000      0.0045
  653.0000      0.0045
  654.0000      0.0045
  655.0000      0.0045
  656.0000      0.0045
  657.0000      0.0045
  658.0000      0.0045
  659.0000      0.0044
  660.0000      0.0044
  661.0000      0.0044
  662.0000      0.0045
  663.0000      0.0044
  664.0000      0.0044
  665.0000      0.0044
  666.0000      0.0045
  667.0000      0.0044
  668.0000      0.0044
  669.0000      0.0045
  670.0000      0.0044
  671.0000      0.0044
  672.0000      0.0044
  673.0000      0.0044
  674.0000      0.0044
  675.0000      0.0045
  676.0000      0.0045
  677.0000      0.0045
  678.0000      0.0045
  679.0000      0.0045
  680.0000      0.0045
  681.0000      0.0045
  682.0000      0.0046
  683.0000      0.0046
  684.0000      0.0046
  685.0000      0.0046
  686.0000      0.0046
  687.0000      0.0046
  688.0000      0.0046
  689.0000      0.0046
  690.0000      0.0046
  691.0000      0.0046
  692.0000      0.0046
  693.0000      0.0046
  694.0000      0.0046
  695.0000      0.0046
  696.0000      0.0046
  697.0000      0.0046
  698.0000      0.0046
  699.0000      0.0046
  700.0000      0.0046
  701.0000      0.0046
  702.0000      0.0046
  703.0000      0.0046
  704.0000      0.0046
  705.0000      0.0046
  706.0000      0.0046
  707.0000      0.0046
  708.0000      0.0046
  709.0000      0.0047
  710.0000      0.0046
  711.0000      0.0046
  712.0000      0.0046
  713.0000      0.0045
  714.0000      0.0045
  715.0000      0.0045
  716.0000      0.0045
  717.0000      0.0045
  718.0000      0.0044
  719.0000      0.0044
  720.0000      0.0044
  721.0000      0.0044
  722.0000      0.0043
  723.0000      0.0043
  724.0000      0.0042
  725.0000      0.0042
  726.0000      0.0041
  727.0000      0.0040
  728.0000      0.0040
  729.0000      0.0039
  730.0000      0.0038
  731.0000      0.0038
  732.0000      0.0037
  733.0000      0.0037
  734.0000      0.0036
  735.0000      0.0035
  736.0000      0.0036
  737.0000      0.0035
  738.0000      0.0035
  739.0000      0.0034
  740.0000      0.0034
  741.0000      0.0034
  742.0000      0.0033
  743.0000      0.0034
  744.0000      0.0033
  745.0000      0.0033
  746.0000      0.0034
  747.0000      0.0034
  748.0000      0.0034
  749.0000      0.0034
  750.0000      0.0034
  751.0000      0.0034
  752.0000      0.0034
  753.0000      0.0034
  754.0000      0.0034
  755.0000      0.0035
  756.0000      0.0034
  757.0000      0.0034
  758.0000      0.0034
  759.0000      0.0034
  760.0000      0.0034
  761.0000      0.0034
  762.0000      0.0034
  763.0000      0.0033
  764.0000      0.0033
  765.0000      0.0033
  766.0000      0.0033
  767.0000      0.0033
  768.0000      0.0033
  769.0000      0.0032
  770.0000      0.0033
  771.0000      0.0032
  772.0000      0.0033
  773.0000      0.0033
  774.0000      0.0032
  775.0000      0.0032
  776.0000      0.0032
  777.0000      0.0032
  778.0000      0.0032
  779.0000      0.0032
  780.0000      0.0032
  781.0000      0.0032
  782.0000      0.0032
  783.0000      0.0031
  784.0000      0.0032
  785.0000      0.0031
  786.0000      0.0031
  787.0000      0.0031
  788.0000      0.0031
  789.0000      0.0030
  790.0000      0.0031
  791.0000      0.0030
  792.0000      0.0030
  793.0000      0.0030
  794.0000      0.0030
  795.0000      0.0029
  796.0000      0.0029
  797.0000      0.0029
  798.0000      0.0029
  799.0000      0.0029
  800.0000      0.0028
