Start Wavelength:    200.0000
End Wavelength:    800.0000
Read Mode:  ABS
Read Average:      0.1000
Nanometer Interval:      1.0000
Time:      0.0000

  200.0000      0.6831
  201.0000      0.6410
  202.0000      0.6215
  203.0000      0.6082
  204.0000      0.5870
  205.0000      0.5729
  206.0000      0.5608
  207.0000      0.5470
  208.0000      0.5335
  209.0000      0.5190
  210.0000      0.5062
  211.0000      0.4930
  212.0000      0.4792
  213.0000      0.4636
  214.0000      0.4495
  215.0000      0.4360
  216.0000      0.4232
  217.0000      0.4079
  218.0000      0.3954
  219.0000      0.3821
  220.0000      0.3688
  221.0000      0.3555
  222.0000      0.3448
  223.0000      0.3333
  224.0000      0.3237
  225.0000      0.3125
  226.0000      0.3029
  227.0000      0.2949
  228.0000      0.2874
  229.0000      0.2793
  230.0000      0.2724
  231.0000      0.2660
  232.0000      0.2598
  233.0000      0.2544
  234.0000      0.2498
  235.0000      0.2447
  236.0000      0.2407
  237.0000      0.2361
  238.0000      0.2330
  239.0000      0.2295
  240.0000      0.2266
  241.0000      0.2232
  242.0000      0.2206
  243.0000      0.2185
  244.0000      0.2159
  245.0000      0.2138
  246.0000      0.2121
  247.0000      0.2094
  248.0000      0.2083
  249.0000      0.2071
  250.0000      0.2050
  251.0000      0.2042
  252.0000      0.2022
  253.0000      0.2007
  254.0000      0.2001
  255.0000      0.1985
  256.0000      0.1973
  257.0000      0.1960
  258.0000      0.1947
  259.0000      0.1930
  260.0000      0.1919
  261.0000      0.1907
  262.0000      0.1890
  263.0000      0.1869
  264.0000      0.1860
  265.0000      0.1840
  266.0000      0.1830
  267.0000      0.1814
  268.0000      0.1793
  269.0000      0.1768
  270.0000      0.1756
  271.0000      0.1736
  272.0000      0.1722
  273.0000      0.1708
  274.0000      0.1679
  275.0000      0.1656
  276.0000      0.1642
  277.0000      0.1623
  278.0000      0.1599
  279.0000      0.1585
  280.0000      0.1555
  281.0000      0.1539
  282.0000      0.1522
  283.0000      0.1496
  284.0000      0.1474
  285.0000      0.1450
  286.0000      0.1433
  287.0000      0.1407
  288.0000      0.1391
  289.0000      0.1362
  290.0000      0.1337
  291.0000      0.1315
  292.0000      0.1295
  293.0000      0.1278
  294.0000      0.1260
  295.0000      0.1226
  296.0000      0.1210
  297.0000      0.1196
  298.0000      0.1177
  299.0000      0.1161
  300.0000      0.1143
  301.0000      0.1123
  302.0000      0.1111
  303.0000      0.1092
  304.0000      0.1072
  305.0000      0.1063
  306.0000      0.1049
  307.0000      0.1037
  308.0000      0.1022
  309.0000      0.1007
  310.0000      0.1001
  311.0000      0.0984
  312.0000      0.0963
  313.0000      0.0953
  314.0000      0.0950
  315.0000      0.0935
  316.0000      0.0921
  317.0000      0.0908
  318.0000      0.0895
  319.0000      0.0886
  320.0000      0.0880
  321.0000      0.0869
  322.0000      0.0865
  323.0000      0.0847
  324.0000      0.0831
  325.0000      0.0824
  326.0000      0.0810
  327.0000      0.0798
  328.0000      0.0789
  329.0000      0.0777
  330.0000      0.0762
  331.0000      0.0755
  332.0000      0.0745
  333.0000      0.0738
  334.0000      0.0726
  335.0000      0.0714
  336.0000      0.0704
  337.0000      0.0701
  338.0000      0.0688
  339.0000      0.0682
  340.0000      0.0671
  341.0000      0.0663
  342.0000      0.0655
  343.0000      0.0649
  344.0000      0.0633
  345.0000      0.0627
  346.0000      0.0623
  347.0000      0.0609
  348.0000      0.0605
  349.0000      0.0603
  350.0000      0.0590
  351.0000      0.0582
  352.0000      0.0580
  353.0000      0.0575
  354.0000      0.0566
  355.0000      0.0564
  356.0000      0.0563
  357.0000      0.0565
  358.0000      0.0579
  359.0000      0.0569
  360.0000      0.0534
  361.0000      0.0530
  362.0000      0.0521
  363.0000      0.0514
  364.0000      0.0513
  365.0000      0.0507
  366.0000      0.0496
  367.0000      0.0496
  368.0000      0.0486
  369.0000      0.0474
  370.0000      0.0477
  371.0000      0.0466
  372.0000      0.0461
  373.0000      0.0465
  374.0000      0.0442
  375.0000      0.0431
  376.0000      0.0443
  377.0000      0.0434
  378.0000      0.0423
  379.0000      0.0432
  380.0000      0.0410
  381.0000      0.0402
  382.0000      0.0406
  383.0000      0.0394
  384.0000      0.0388
  385.0000      0.0386
  386.0000      0.0378
  387.0000      0.0376
  388.0000      0.0374
  389.0000      0.0369
  390.0000      0.0359
  391.0000      0.0354
  392.0000      0.0350
  393.0000      0.0352
  394.0000      0.0346
  395.0000      0.0340
  396.0000      0.0331
  397.0000      0.0335
  398.0000      0.0328
  399.0000      0.0328
  400.0000      0.0316
  401.0000      0.0313
  402.0000      0.0314
  403.0000      0.0307
  404.0000      0.0304
  405.0000      0.0302
  406.0000      0.0297
  407.0000      0.0301
  408.0000      0.0297
  409.0000      0.0292
  410.0000      0.0284
  411.0000      0.0289
  412.0000      0.0284
  413.0000      0.0281
  414.0000      0.0277
  415.0000      0.0273
  416.0000      0.0272
  417.0000      0.0270
  418.0000      0.0266
  419.0000      0.0263
  420.0000      0.0262
  421.0000      0.0258
  422.0000      0.0257
  423.0000      0.0253
  424.0000      0.0249
  425.0000      0.0247
  426.0000      0.0245
  427.0000      0.0244
  428.0000      0.0240
  429.0000      0.0238
  430.0000      0.0236
  431.0000      0.0234
  432.0000      0.0231
  433.0000      0.0228
  434.0000      0.0227
  435.0000      0.0226
  436.0000      0.0223
  437.0000      0.0219
  438.0000      0.0217
  439.0000      0.0215
  440.0000      0.0213
  441.0000      0.0211
  442.0000      0.0208
  443.0000      0.0206
  444.0000      0.0205
  445.0000      0.0205
  446.0000      0.0203
  447.0000      0.0201
  448.0000      0.0200
  449.0000      0.0197
  450.0000      0.0195
  451.0000      0.0194
  452.0000      0.0190
  453.0000      0.0189
  454.0000      0.0187
  455.0000      0.0186
  456.0000      0.0184
  457.0000      0.0181
  458.0000      0.0180
  459.0000      0.0179
  460.0000      0.0177
  461.0000      0.0176
  462.0000      0.0175
  463.0000      0.0173
  464.0000      0.0172
  465.0000      0.0170
  466.0000      0.0169
  467.0000      0.0167
  468.0000      0.0166
  469.0000      0.0166
  470.0000      0.0164
  471.0000      0.0162
  472.0000      0.0162
  473.0000      0.0160
  474.0000      0.0159
  475.0000      0.0158
  476.0000      0.0156
  477.0000      0.0155
  478.0000      0.0153
  479.0000      0.0152
  480.0000      0.0151
  481.0000      0.0149
  482.0000      0.0148
  483.0000      0.0148
  484.0000      0.0146
  485.0000      0.0145
  486.0000      0.0144
  487.0000      0.0143
  488.0000      0.0141
  489.0000      0.0140
  490.0000      0.0139
  491.0000      0.0138
  492.0000      0.0136
  493.0000      0.0135
  494.0000      0.0134
  495.0000      0.0132
  496.0000      0.0132
  497.0000      0.0131
  498.0000      0.0130
  499.0000      0.0130
  500.0000      0.0129
  501.0000      0.0128
  502.0000      0.0126
  503.0000      0.0126
  504.0000      0.0125
  505.0000      0.0124
  506.0000      0.0122
  507.0000      0.0121
  508.0000      0.0120
  509.0000      0.0118
  510.0000      0.0118
  511.0000      0.0117
  512.0000      0.0116
  513.0000      0.0116
  514.0000      0.0115
  515.0000      0.0113
  516.0000      0.0112
  517.0000      0.0111
  518.0000      0.0111
  519.0000      0.0110
  520.0000      0.0109
  521.0000      0.0108
  522.0000      0.0108
  523.0000      0.0108
  524.0000      0.0107
  525.0000      0.0106
  526.0000      0.0106
  527.0000      0.0105
  528.0000      0.0104
  529.0000      0.0103
  530.0000      0.0102
  531.0000      0.0100
  532.0000      0.0100
  533.0000      0.0099
  534.0000      0.0098
  535.0000      0.0097
  536.0000      0.0097
  537.0000      0.0096
  538.0000      0.0095
  539.0000      0.0095
  540.0000      0.0095
  541.0000      0.0094
  542.0000      0.0093
  543.0000      0.0092
  544.0000      0.0092
  545.0000      0.0091
  546.0000      0.0090
  547.0000      0.0090
  548.0000      0.0088
  549.0000      0.0086
  550.0000      0.0085
  551.0000      0.0084
  552.0000      0.0083
  553.0000      0.0082
  554.0000      0.0082
  555.0000      0.0081
  556.0000      0.0081
  557.0000      0.0083
  558.0000      0.0083
  559.0000      0.0082
  560.0000      0.0081
  561.0000      0.0080
  562.0000      0.0079
  563.0000      0.0079
  564.0000      0.0078
  565.0000      0.0078
  566.0000      0.0077
  567.0000      0.0077
  568.0000      0.0077
  569.0000      0.0077
  570.0000      0.0076
  571.0000      0.0076
  572.0000      0.0076
  573.0000      0.0076
  574.0000      0.0076
  575.0000      0.0076
  576.0000      0.0076
  577.0000      0.0076
  578.0000      0.0076
  579.0000      0.0076
  580.0000      0.0076
  581.0000      0.0076
  582.0000      0.0076
  583.0000      0.0075
  584.0000      0.0075
  585.0000      0.0075
  586.0000      0.0073
  587.0000      0.0072
  588.0000      0.0072
  589.0000      0.0071
  590.0000      0.0070
  591.0000      0.0070
  592.0000      0.0069
  593.0000      0.0069
  594.0000      0.0069
  595.0000      0.0068
  596.0000      0.0067
  597.0000      0.0067
  598.0000      0.0066
  599.0000      0.0066
  600.0000      0.0065
  601.0000      0.0065
  602.0000      0.0064
  603.0000      0.0063
  604.0000      0.0062
  605.0000      0.0061
  606.0000      0.0060
  607.0000      0.0060
  608.0000      0.0060
  609.0000      0.0059
  610.0000      0.0059
  611.0000      0.0059
  612.0000      0.0059
  613.0000      0.0058
  614.0000      0.0057
  615.0000      0.0057
  616.0000      0.0057
  617.0000      0.0056
  618.0000      0.0056
  619.0000      0.0055
  620.0000      0.0054
  621.0000      0.0053
  622.0000      0.0052
  623.0000      0.0052
  624.0000      0.0052
  625.0000      0.0052
  626.0000      0.0052
  627.0000      0.0052
  628.0000      0.0052
  629.0000      0.0052
  630.0000      0.0053
  631.0000      0.0053
  632.0000      0.0053
  633.0000      0.0053
  634.0000      0.0053
  635.0000      0.0053
  636.0000      0.0053
  637.0000      0.0054
  638.0000      0.0053
  639.0000      0.0052
  640.0000      0.0053
  641.0000      0.0053
  642.0000      0.0053
  643.0000      0.0053
  644.0000      0.0053
  645.0000      0.0054
  646.0000      0.0054
  647.0000      0.0054
  648.0000      0.0054
  649.0000      0.0054
  650.0000      0.0054
  651.0000      0.0054
  652.0000      0.0054
  653.0000      0.0054
  654.0000      0.0053
  655.0000      0.0053
  656.0000      0.0053
  657.0000      0.0054
  658.0000      0.0054
  659.0000      0.0054
  660.0000      0.0055
  661.0000      0.0055
  662.0000      0.0054
  663.0000      0.0055
  664.0000      0.0055
  665.0000      0.0055
  666.0000      0.0055
  667.0000      0.0055
  668.0000      0.0055
  669.0000      0.0055
  670.0000      0.0056
  671.0000      0.0056
  672.0000      0.0056
  673.0000      0.0056
  674.0000      0.0056
  675.0000      0.0056
  676.0000      0.0056
  677.0000      0.0056
  678.0000      0.0056
  679.0000      0.0056
  680.0000      0.0056
  681.0000      0.0055
  682.0000      0.0055
  683.0000      0.0054
  684.0000      0.0054
  685.0000      0.0054
  686.0000      0.0053
  687.0000      0.0052
  688.0000      0.0053
  689.0000      0.0052
  690.0000      0.0052
  691.0000      0.0052
  692.0000      0.0052
  693.0000      0.0053
  694.0000      0.0052
  695.0000      0.0052
  696.0000      0.0052
  697.0000      0.0051
  698.0000      0.0050
  699.0000      0.0050
  700.0000      0.0049
  701.0000      0.0048
  702.0000      0.0049
  703.0000      0.0048
  704.0000      0.0048
  705.0000      0.0047
  706.0000      0.0047
  707.0000      0.0047
  708.0000      0.0047
  709.0000      0.0047
  710.0000      0.0047
  711.0000      0.0047
  712.0000      0.0047
  713.0000      0.0047
  714.0000      0.0047
  715.0000      0.0047
  716.0000      0.0047
  717.0000      0.0047
  718.0000      0.0048
  719.0000      0.0049
  720.0000      0.0049
  721.0000      0.0050
  722.0000      0.0050
  723.0000      0.0050
  724.0000      0.0051
  725.0000      0.0050
  726.0000      0.0050
  727.0000      0.0050
  728.0000      0.0050
  729.0000      0.0050
  730.0000      0.0050
  731.0000      0.0050
  732.0000      0.0049
  733.0000      0.0049
  734.0000      0.0049
  735.0000      0.0049
  736.0000      0.0041
  737.0000      0.0040
  738.0000      0.0039
  739.0000      0.0039
  740.0000      0.0039
  741.0000      0.0038
  742.0000      0.0038
  743.0000      0.0038
  744.0000      0.0038
  745.0000      0.0038
  746.0000      0.0038
  747.0000      0.0039
  748.0000      0.0039
  749.0000      0.0039
  750.0000      0.0040
  751.0000      0.0040
  752.0000      0.0039
  753.0000      0.0040
  754.0000      0.0040
  755.0000      0.0040
  756.0000      0.0040
  757.0000      0.0040
  758.0000      0.0040
  759.0000      0.0040
  760.0000      0.0040
  761.0000      0.0039
  762.0000      0.0039
  763.0000      0.0040
  764.0000      0.0040
  765.0000      0.0040
  766.0000      0.0041
  767.0000      0.0041
  768.0000      0.0041
  769.0000      0.0040
  770.0000      0.0041
  771.0000      0.0041
  772.0000      0.0040
  773.0000      0.0041
  774.0000      0.0041
  775.0000      0.0041
  776.0000      0.0040
  777.0000      0.0041
  778.0000      0.0040
  779.0000      0.0040
  780.0000      0.0040
  781.0000      0.0040
  782.0000      0.0041
  783.0000      0.0040
  784.0000      0.0040
  785.0000      0.0040
  786.0000      0.0039
  787.0000      0.0039
  788.0000      0.0039
  789.0000      0.0039
  790.0000      0.0039
  791.0000      0.0038
  792.0000      0.0037
  793.0000      0.0037
  794.0000      0.0036
  795.0000      0.0037
  796.0000      0.0037
  797.0000      0.0037
  798.0000      0.0036
  799.0000      0.0037
  800.0000      0.0036
