Start Wavelength:    200.0000
End Wavelength:    800.0000
Read Mode:  ABS
Read Average:      0.1000
Nanometer Interval:      1.0000
Time:      0.0000

  200.0000      1.5156
  201.0000      1.4598
  202.0000      1.4410
  203.0000      1.3995
  204.0000      1.3549
  205.0000      1.3179
  206.0000      1.2853
  207.0000      1.2514
  208.0000      1.2242
  209.0000      1.1934
  210.0000      1.1700
  211.0000      1.1456
  212.0000      1.1199
  213.0000      1.0942
  214.0000      1.0744
  215.0000      1.0486
  216.0000      1.0300
  217.0000      1.0078
  218.0000      0.9888
  219.0000      0.9736
  220.0000      0.9551
  221.0000      0.9355
  222.0000      0.9202
  223.0000      0.9063
  224.0000      0.8908
  225.0000      0.8762
  226.0000      0.8616
  227.0000      0.8486
  228.0000      0.8365
  229.0000      0.8240
  230.0000      0.8099
  231.0000      0.7983
  232.0000      0.7884
  233.0000      0.7759
  234.0000      0.7661
  235.0000      0.7559
  236.0000      0.7468
  237.0000      0.7375
  238.0000      0.7298
  239.0000      0.7225
  240.0000      0.7153
  241.0000      0.7079
  242.0000      0.7017
  243.0000      0.6973
  244.0000      0.6927
  245.0000      0.6856
  246.0000      0.6817
  247.0000      0.6783
  248.0000      0.6723
  249.0000      0.6704
  250.0000      0.6657
  251.0000      0.6609
  252.0000      0.6574
  253.0000      0.6531
  254.0000      0.6491
  255.0000      0.6463
  256.0000      0.6417
  257.0000      0.6369
  258.0000      0.6340
  259.0000      0.6299
  260.0000      0.6245
  261.0000      0.6207
  262.0000      0.6171
  263.0000      0.6110
  264.0000      0.6073
  265.0000      0.6021
  266.0000      0.5953
  267.0000      0.5910
  268.0000      0.5864
  269.0000      0.5806
  270.0000      0.5748
  271.0000      0.5687
  272.0000      0.5622
  273.0000      0.5573
  274.0000      0.5497
  275.0000      0.5430
  276.0000      0.5382
  277.0000      0.5321
  278.0000      0.5251
  279.0000      0.5195
  280.0000      0.5124
  281.0000      0.5047
  282.0000      0.4987
  283.0000      0.4915
  284.0000      0.4851
  285.0000      0.4780
  286.0000      0.4710
  287.0000      0.4649
  288.0000      0.4577
  289.0000      0.4516
  290.0000      0.4447
  291.0000      0.4385
  292.0000      0.4314
  293.0000      0.4257
  294.0000      0.4202
  295.0000      0.4129
  296.0000      0.4079
  297.0000      0.4026
  298.0000      0.3958
  299.0000      0.3916
  300.0000      0.3857
  301.0000      0.3809
  302.0000      0.3758
  303.0000      0.3719
  304.0000      0.3661
  305.0000      0.3623
  306.0000      0.3592
  307.0000      0.3535
  308.0000      0.3495
  309.0000      0.3470
  310.0000      0.3429
  311.0000      0.3396
  312.0000      0.3359
  313.0000      0.3321
  314.0000      0.3285
  315.0000      0.3259
  316.0000      0.3223
  317.0000      0.3195
  318.0000      0.3167
  319.0000      0.3129
  320.0000      0.3109
  321.0000      0.3105
  322.0000      0.3049
  323.0000      0.3026
  324.0000      0.2995
  325.0000      0.2975
  326.0000      0.2950
  327.0000      0.2925
  328.0000      0.2906
  329.0000      0.2878
  330.0000      0.2850
  331.0000      0.2832
  332.0000      0.2812
  333.0000      0.2785
  334.0000      0.2765
  335.0000      0.2753
  336.0000      0.2717
  337.0000      0.2700
  338.0000      0.2683
  339.0000      0.2663
  340.0000      0.2646
  341.0000      0.2626
  342.0000      0.2603
  343.0000      0.2588
  344.0000      0.2575
  345.0000      0.2556
  346.0000      0.2541
  347.0000      0.2521
  348.0000      0.2500
  349.0000      0.2488
  350.0000      0.2475
  351.0000      0.2453
  352.0000      0.2445
  353.0000      0.2427
  354.0000      0.2411
  355.0000      0.2399
  356.0000      0.2397
  357.0000      0.2379
  358.0000      0.2368
  359.0000      0.2354
  360.0000      0.2321
  361.0000      0.2328
  362.0000      0.2314
  363.0000      0.2291
  364.0000      0.2302
  365.0000      0.2269
  366.0000      0.2238
  367.0000      0.2240
  368.0000      0.2261
  369.0000      0.2218
  370.0000      0.2221
  371.0000      0.2203
  372.0000      0.2175
  373.0000      0.2197
  374.0000      0.2168
  375.0000      0.2162
  376.0000      0.2149
  377.0000      0.2141
  378.0000      0.2132
  379.0000      0.2120
  380.0000      0.2123
  381.0000      0.2102
  382.0000      0.2096
  383.0000      0.2068
  384.0000      0.2071
  385.0000      0.2057
  386.0000      0.2053
  387.0000      0.2044
  388.0000      0.2037
  389.0000      0.2015
  390.0000      0.2009
  391.0000      0.2012
  392.0000      0.1995
  393.0000      0.1993
  394.0000      0.1983
  395.0000      0.1971
  396.0000      0.1968
  397.0000      0.1957
  398.0000      0.1958
  399.0000      0.1945
  400.0000      0.1935
  401.0000      0.1922
  402.0000      0.1918
  403.0000      0.1911
  404.0000      0.1906
  405.0000      0.1899
  406.0000      0.1883
  407.0000      0.1879
  408.0000      0.1870
  409.0000      0.1865
  410.0000      0.1862
  411.0000      0.1862
  412.0000      0.1848
  413.0000      0.1844
  414.0000      0.1833
  415.0000      0.1829
  416.0000      0.1815
  417.0000      0.1809
  418.0000      0.1801
  419.0000      0.1793
  420.0000      0.1788
  421.0000      0.1780
  422.0000      0.1774
  423.0000      0.1765
  424.0000      0.1757
  425.0000      0.1753
  426.0000      0.1745
  427.0000      0.1739
  428.0000      0.1731
  429.0000      0.1724
  430.0000      0.1718
  431.0000      0.1711
  432.0000      0.1703
  433.0000      0.1699
  434.0000      0.1692
  435.0000      0.1685
  436.0000      0.1678
  437.0000      0.1672
  438.0000      0.1665
  439.0000      0.1658
  440.0000      0.1652
  441.0000      0.1643
  442.0000      0.1637
  443.0000      0.1629
  444.0000      0.1620
  445.0000      0.1614
  446.0000      0.1605
  447.0000      0.1598
  448.0000      0.1590
  449.0000      0.1581
  450.0000      0.1572
  451.0000      0.1566
  452.0000      0.1556
  453.0000      0.1551
  454.0000      0.1542
  455.0000      0.1535
  456.0000      0.1528
  457.0000      0.1522
  458.0000      0.1514
  459.0000      0.1510
  460.0000      0.1502
  461.0000      0.1498
  462.0000      0.1494
  463.0000      0.1489
  464.0000      0.1485
  465.0000      0.1481
  466.0000      0.1476
  467.0000      0.1471
  468.0000      0.1467
  469.0000      0.1462
  470.0000      0.1455
  471.0000      0.1449
  472.0000      0.1443
  473.0000      0.1437
  474.0000      0.1429
  475.0000      0.1423
  476.0000      0.1417
  477.0000      0.1411
  478.0000      0.1405
  479.0000      0.1400
  480.0000      0.1393
  481.0000      0.1388
  482.0000      0.1383
  483.0000      0.1378
  484.0000      0.1372
  485.0000      0.1367
  486.0000      0.1361
  487.0000      0.1356
  488.0000      0.1350
  489.0000      0.1346
  490.0000      0.1340
  491.0000      0.1335
  492.0000      0.1329
  493.0000      0.1324
  494.0000      0.1319
  495.0000      0.1314
  496.0000      0.1309
  497.0000      0.1304
  498.0000      0.1299
  499.0000      0.1294
  500.0000      0.1290
  501.0000      0.1285
  502.0000      0.1281
  503.0000      0.1276
  504.0000      0.1272
  505.0000      0.1268
  506.0000      0.1263
  507.0000      0.1259
  508.0000      0.1254
  509.0000      0.1249
  510.0000      0.1244
  511.0000      0.1240
  512.0000      0.1235
  513.0000      0.1229
  514.0000      0.1224
  515.0000      0.1218
  516.0000      0.1212
  517.0000      0.1207
  518.0000      0.1201
  519.0000      0.1197
  520.0000      0.1192
  521.0000      0.1187
  522.0000      0.1182
  523.0000      0.1178
  524.0000      0.1174
  525.0000      0.1169
  526.0000      0.1165
  527.0000      0.1161
  528.0000      0.1158
  529.0000      0.1154
  530.0000      0.1150
  531.0000      0.1146
  532.0000      0.1141
  533.0000      0.1138
  534.0000      0.1133
  535.0000      0.1129
  536.0000      0.1125
  537.0000      0.1120
  538.0000      0.1116
  539.0000      0.1112
  540.0000      0.1108
  541.0000      0.1105
  542.0000      0.1101
  543.0000      0.1097
  544.0000      0.1092
  545.0000      0.1088
  546.0000      0.1084
  547.0000      0.1081
  548.0000      0.1078
  549.0000      0.1074
  550.0000      0.1070
  551.0000      0.1067
  552.0000      0.1063
  553.0000      0.1059
  554.0000      0.1056
  555.0000      0.1053
  556.0000      0.1051
  557.0000      0.1056
  558.0000      0.1053
  559.0000      0.1050
  560.0000      0.1047
  561.0000      0.1043
  562.0000      0.1041
  563.0000      0.1037
  564.0000      0.1034
  565.0000      0.1032
  566.0000      0.1029
  567.0000      0.1026
  568.0000      0.1025
  569.0000      0.1022
  570.0000      0.1018
  571.0000      0.1015
  572.0000      0.1012
  573.0000      0.1008
  574.0000      0.1005
  575.0000      0.1001
  576.0000      0.0997
  577.0000      0.0994
  578.0000      0.0991
  579.0000      0.0987
  580.0000      0.0984
  581.0000      0.0982
  582.0000      0.0979
  583.0000      0.0975
  584.0000      0.0972
  585.0000      0.0969
  586.0000      0.0966
  587.0000      0.0962
  588.0000      0.0958
  589.0000      0.0953
  590.0000      0.0951
  591.0000      0.0947
  592.0000      0.0944
  593.0000      0.0941
  594.0000      0.0938
  595.0000      0.0935
  596.0000      0.0932
  597.0000      0.0929
  598.0000      0.0925
  599.0000      0.0921
  600.0000      0.0918
  601.0000      0.0915
  602.0000      0.0911
  603.0000      0.0908
  604.0000      0.0905
  605.0000      0.0903
  606.0000      0.0901
  607.0000      0.0898
  608.0000      0.0896
  609.0000      0.0894
  610.0000      0.0893
  611.0000      0.0891
  612.0000      0.0890
  613.0000      0.0889
  614.0000      0.0887
  615.0000      0.0886
  616.0000      0.0885
  617.0000      0.0883
  618.0000      0.0882
  619.0000      0.0881
  620.0000      0.0880
  621.0000      0.0879
  622.0000      0.0878
  623.0000      0.0876
  624.0000      0.0874
  625.0000      0.0872
  626.0000      0.0871
  627.0000      0.0869
  628.0000      0.0868
  629.0000      0.0867
  630.0000      0.0866
  631.0000      0.0865
  632.0000      0.0863
  633.0000      0.0861
  634.0000      0.0859
  635.0000      0.0857
  636.0000      0.0856
  637.0000      0.0853
  638.0000      0.0851
  639.0000      0.0849
  640.0000      0.0848
  641.0000      0.0846
  642.0000      0.0843
  643.0000      0.0841
  644.0000      0.0839
  645.0000      0.0837
  646.0000      0.0835
  647.0000      0.0833
  648.0000      0.0831
  649.0000      0.0829
  650.0000      0.0829
  651.0000      0.0827
  652.0000      0.0827
  653.0000      0.0826
  654.0000      0.0824
  655.0000      0.0823
  656.0000      0.0821
  657.0000      0.0819
  658.0000      0.0817
  659.0000      0.0815
  660.0000      0.0814
  661.0000      0.0812
  662.0000      0.0811
  663.0000      0.0810
  664.0000      0.0810
  665.0000      0.0809
  666.0000      0.0809
  667.0000      0.0809
  668.0000      0.0809
  669.0000      0.0809
  670.0000      0.0808
  671.0000      0.0808
  672.0000      0.0807
  673.0000      0.0805
  674.0000      0.0804
  675.0000      0.0803
  676.0000      0.0802
  677.0000      0.0801
  678.0000      0.0800
  679.0000      0.0799
  680.0000      0.0798
  681.0000      0.0796
  682.0000      0.0794
  683.0000      0.0792
  684.0000      0.0789
  685.0000      0.0786
  686.0000      0.0783
  687.0000      0.0780
  688.0000      0.0776
  689.0000      0.0774
  690.0000      0.0771
  691.0000      0.0768
  692.0000      0.0764
  693.0000      0.0762
  694.0000      0.0759
  695.0000      0.0755
  696.0000      0.0752
  697.0000      0.0750
  698.0000      0.0746
  699.0000      0.0743
  700.0000      0.0740
  701.0000      0.0738
  702.0000      0.0736
  703.0000      0.0733
  704.0000      0.0731
  705.0000      0.0729
  706.0000      0.0727
  707.0000      0.0724
  708.0000      0.0722
  709.0000      0.0719
  710.0000      0.0717
  711.0000      0.0715
  712.0000      0.0713
  713.0000      0.0711
  714.0000      0.0709
  715.0000      0.0706
  716.0000      0.0704
  717.0000      0.0703
  718.0000      0.0700
  719.0000      0.0698
  720.0000      0.0695
  721.0000      0.0693
  722.0000      0.0691
  723.0000      0.0689
  724.0000      0.0687
  725.0000      0.0685
  726.0000      0.0684
  727.0000      0.0682
  728.0000      0.0681
  729.0000      0.0679
  730.0000      0.0677
  731.0000      0.0676
  732.0000      0.0674
  733.0000      0.0672
  734.0000      0.0670
  735.0000      0.0669
  736.0000      0.0661
  737.0000      0.0660
  738.0000      0.0659
  739.0000      0.0658
  740.0000      0.0656
  741.0000      0.0656
  742.0000      0.0654
  743.0000      0.0653
  744.0000      0.0651
  745.0000      0.0650
  746.0000      0.0649
  747.0000      0.0648
  748.0000      0.0647
  749.0000      0.0645
  750.0000      0.0644
  751.0000      0.0642
  752.0000      0.0641
  753.0000      0.0639
  754.0000      0.0638
  755.0000      0.0636
  756.0000      0.0634
  757.0000      0.0633
  758.0000      0.0631
  759.0000      0.0630
  760.0000      0.0628
  761.0000      0.0627
  762.0000      0.0625
  763.0000      0.0625
  764.0000      0.0623
  765.0000      0.0623
  766.0000      0.0622
  767.0000      0.0622
  768.0000      0.0620
  769.0000      0.0620
  770.0000      0.0618
  771.0000      0.0618
  772.0000      0.0617
  773.0000      0.0616
  774.0000      0.0615
  775.0000      0.0614
  776.0000      0.0612
  777.0000      0.0612
  778.0000      0.0611
  779.0000      0.0610
  780.0000      0.0609
  781.0000      0.0607
  782.0000      0.0607
  783.0000      0.0606
  784.0000      0.0605
  785.0000      0.0604
  786.0000      0.0603
  787.0000      0.0601
  788.0000      0.0600
  789.0000      0.0599
  790.0000      0.0598
  791.0000      0.0596
  792.0000      0.0595
  793.0000      0.0594
  794.0000      0.0593
  795.0000      0.0592
  796.0000      0.0591
  797.0000      0.0590
  798.0000      0.0588
  799.0000      0.0587
  800.0000      0.0585
