Start Wavelength:    200.0000
End Wavelength:    800.0000
Read Mode:  ABS
Read Average:      0.1000
Nanometer Interval:      1.0000
Time:      0.0000

  200.0000      2.4258
  201.0000      2.1328
  202.0000      2.0642
  203.0000      1.8419
  204.0000      1.6061
  205.0000      1.4423
  206.0000      1.2948
  207.0000      1.1640
  208.0000      1.0637
  209.0000      0.9672
  210.0000      0.8875
  211.0000      0.8184
  212.0000      0.7636
  213.0000      0.7131
  214.0000      0.6711
  215.0000      0.6373
  216.0000      0.6096
  217.0000      0.5849
  218.0000      0.5649
  219.0000      0.5464
  220.0000      0.5317
  221.0000      0.5170
  222.0000      0.5057
  223.0000      0.4942
  224.0000      0.4851
  225.0000      0.4749
  226.0000      0.4667
  227.0000      0.4584
  228.0000      0.4508
  229.0000      0.4439
  230.0000      0.4360
  231.0000      0.4288
  232.0000      0.4225
  233.0000      0.4161
  234.0000      0.4100
  235.0000      0.4038
  236.0000      0.3977
  237.0000      0.3919
  238.0000      0.3864
  239.0000      0.3810
  240.0000      0.3760
  241.0000      0.3709
  242.0000      0.3664
  243.0000      0.3622
  244.0000      0.3580
  245.0000      0.3532
  246.0000      0.3495
  247.0000      0.3456
  248.0000      0.3423
  249.0000      0.3393
  250.0000      0.3361
  251.0000      0.3327
  252.0000      0.3299
  253.0000      0.3275
  254.0000      0.3243
  255.0000      0.3213
  256.0000      0.3189
  257.0000      0.3161
  258.0000      0.3134
  259.0000      0.3110
  260.0000      0.3088
  261.0000      0.3053
  262.0000      0.3026
  263.0000      0.2998
  264.0000      0.2971
  265.0000      0.2944
  266.0000      0.2917
  267.0000      0.2878
  268.0000      0.2853
  269.0000      0.2825
  270.0000      0.2785
  271.0000      0.2753
  272.0000      0.2734
  273.0000      0.2704
  274.0000      0.2666
  275.0000      0.2638
  276.0000      0.2612
  277.0000      0.2584
  278.0000      0.2550
  279.0000      0.2516
  280.0000      0.2490
  281.0000      0.2463
  282.0000      0.2424
  283.0000      0.2389
  284.0000      0.2358
  285.0000      0.2332
  286.0000      0.2294
  287.0000      0.2263
  288.0000      0.2232
  289.0000      0.2207
  290.0000      0.2167
  291.0000      0.2139
  292.0000      0.2111
  293.0000      0.2084
  294.0000      0.2042
  295.0000      0.2013
  296.0000      0.1987
  297.0000      0.1957
  298.0000      0.1932
  299.0000      0.1903
  300.0000      0.1881
  301.0000      0.1858
  302.0000      0.1821
  303.0000      0.1797
  304.0000      0.1777
  305.0000      0.1753
  306.0000      0.1726
  307.0000      0.1702
  308.0000      0.1688
  309.0000      0.1663
  310.0000      0.1636
  311.0000      0.1615
  312.0000      0.1590
  313.0000      0.1573
  314.0000      0.1551
  315.0000      0.1532
  316.0000      0.1516
  317.0000      0.1493
  318.0000      0.1468
  319.0000      0.1457
  320.0000      0.1443
  321.0000      0.1427
  322.0000      0.1390
  323.0000      0.1369
  324.0000      0.1358
  325.0000      0.1334
  326.0000      0.1313
  327.0000      0.1303
  328.0000      0.1283
  329.0000      0.1268
  330.0000      0.1248
  331.0000      0.1225
  332.0000      0.1214
  333.0000      0.1195
  334.0000      0.1182
  335.0000      0.1161
  336.0000      0.1148
  337.0000      0.1134
  338.0000      0.1119
  339.0000      0.1098
  340.0000      0.1089
  341.0000      0.1074
  342.0000      0.1056
  343.0000      0.1042
  344.0000      0.1029
  345.0000      0.1015
  346.0000      0.1001
  347.0000      0.0980
  348.0000      0.0975
  349.0000      0.0959
  350.0000      0.0947
  351.0000      0.0930
  352.0000      0.0920
  353.0000      0.0907
  354.0000      0.0895
  355.0000      0.0883
  356.0000      0.0879
  357.0000      0.0874
  358.0000      0.0856
  359.0000      0.0833
  360.0000      0.0834
  361.0000      0.0826
  362.0000      0.0808
  363.0000      0.0795
  364.0000      0.0790
  365.0000      0.0781
  366.0000      0.0762
  367.0000      0.0757
  368.0000      0.0744
  369.0000      0.0739
  370.0000      0.0722
  371.0000      0.0722
  372.0000      0.0716
  373.0000      0.0693
  374.0000      0.0689
  375.0000      0.0685
  376.0000      0.0673
  377.0000      0.0660
  378.0000      0.0659
  379.0000      0.0643
  380.0000      0.0640
  381.0000      0.0632
  382.0000      0.0630
  383.0000      0.0612
  384.0000      0.0609
  385.0000      0.0597
  386.0000      0.0590
  387.0000      0.0585
  388.0000      0.0581
  389.0000      0.0569
  390.0000      0.0566
  391.0000      0.0562
  392.0000      0.0548
  393.0000      0.0539
  394.0000      0.0540
  395.0000      0.0536
  396.0000      0.0522
  397.0000      0.0519
  398.0000      0.0514
  399.0000      0.0506
  400.0000      0.0491
  401.0000      0.0494
  402.0000      0.0491
  403.0000      0.0482
  404.0000      0.0474
  405.0000      0.0474
  406.0000      0.0466
  407.0000      0.0455
  408.0000      0.0453
  409.0000      0.0449
  410.0000      0.0445
  411.0000      0.0436
  412.0000      0.0435
  413.0000      0.0429
  414.0000      0.0422
  415.0000      0.0418
  416.0000      0.0410
  417.0000      0.0405
  418.0000      0.0401
  419.0000      0.0397
  420.0000      0.0393
  421.0000      0.0387
  422.0000      0.0383
  423.0000      0.0380
  424.0000      0.0374
  425.0000      0.0370
  426.0000      0.0366
  427.0000      0.0363
  428.0000      0.0358
  429.0000      0.0355
  430.0000      0.0351
  431.0000      0.0350
  432.0000      0.0345
  433.0000      0.0342
  434.0000      0.0339
  435.0000      0.0337
  436.0000      0.0333
  437.0000      0.0330
  438.0000      0.0327
  439.0000      0.0323
  440.0000      0.0321
  441.0000      0.0318
  442.0000      0.0315
  443.0000      0.0310
  444.0000      0.0308
  445.0000      0.0304
  446.0000      0.0301
  447.0000      0.0298
  448.0000      0.0295
  449.0000      0.0291
  450.0000      0.0288
  451.0000      0.0286
  452.0000      0.0282
  453.0000      0.0280
  454.0000      0.0277
  455.0000      0.0275
  456.0000      0.0273
  457.0000      0.0269
  458.0000      0.0267
  459.0000      0.0265
  460.0000      0.0262
  461.0000      0.0260
  462.0000      0.0258
  463.0000      0.0256
  464.0000      0.0254
  465.0000      0.0252
  466.0000      0.0250
  467.0000      0.0248
  468.0000      0.0247
  469.0000      0.0245
  470.0000      0.0243
  471.0000      0.0241
  472.0000      0.0239
  473.0000      0.0238
  474.0000      0.0236
  475.0000      0.0234
  476.0000      0.0233
  477.0000      0.0231
  478.0000      0.0229
  479.0000      0.0227
  480.0000      0.0226
  481.0000      0.0225
  482.0000      0.0222
  483.0000      0.0221
  484.0000      0.0220
  485.0000      0.0218
  486.0000      0.0217
  487.0000      0.0215
  488.0000      0.0214
  489.0000      0.0212
  490.0000      0.0211
  491.0000      0.0210
  492.0000      0.0209
  493.0000      0.0207
  494.0000      0.0206
  495.0000      0.0205
  496.0000      0.0203
  497.0000      0.0201
  498.0000      0.0200
  499.0000      0.0199
  500.0000      0.0197
  501.0000      0.0197
  502.0000      0.0197
  503.0000      0.0196
  504.0000      0.0196
  505.0000      0.0196
  506.0000      0.0196
  507.0000      0.0195
  508.0000      0.0194
  509.0000      0.0194
  510.0000      0.0193
  511.0000      0.0192
  512.0000      0.0191
  513.0000      0.0190
  514.0000      0.0190
  515.0000      0.0189
  516.0000      0.0189
  517.0000      0.0188
  518.0000      0.0187
  519.0000      0.0186
  520.0000      0.0186
  521.0000      0.0185
  522.0000      0.0184
  523.0000      0.0183
  524.0000      0.0183
  525.0000      0.0182
  526.0000      0.0181
  527.0000      0.0179
  528.0000      0.0179
  529.0000      0.0178
  530.0000      0.0177
  531.0000      0.0175
  532.0000      0.0174
  533.0000      0.0174
  534.0000      0.0172
  535.0000      0.0172
  536.0000      0.0171
  537.0000      0.0170
  538.0000      0.0170
  539.0000      0.0169
  540.0000      0.0169
  541.0000      0.0168
  542.0000      0.0168
  543.0000      0.0167
  544.0000      0.0166
  545.0000      0.0166
  546.0000      0.0165
  547.0000      0.0164
  548.0000      0.0164
  549.0000      0.0163
  550.0000      0.0162
  551.0000      0.0162
  552.0000      0.0161
  553.0000      0.0160
  554.0000      0.0160
  555.0000      0.0159
  556.0000      0.0159
  557.0000      0.0164
  558.0000      0.0163
  559.0000      0.0161
  560.0000      0.0160
  561.0000      0.0159
  562.0000      0.0158
  563.0000      0.0157
  564.0000      0.0156
  565.0000      0.0155
  566.0000      0.0153
  567.0000      0.0152
  568.0000      0.0150
  569.0000      0.0149
  570.0000      0.0148
  571.0000      0.0147
  572.0000      0.0147
  573.0000      0.0146
  574.0000      0.0146
  575.0000      0.0145
  576.0000      0.0145
  577.0000      0.0145
  578.0000      0.0145
  579.0000      0.0145
  580.0000      0.0145
  581.0000      0.0145
  582.0000      0.0144
  583.0000      0.0143
  584.0000      0.0142
  585.0000      0.0141
  586.0000      0.0140
  587.0000      0.0139
  588.0000      0.0138
  589.0000      0.0137
  590.0000      0.0137
  591.0000      0.0136
  592.0000      0.0136
  593.0000      0.0136
  594.0000      0.0135
  595.0000      0.0135
  596.0000      0.0134
  597.0000      0.0133
  598.0000      0.0131
  599.0000      0.0130
  600.0000      0.0130
  601.0000      0.0129
  602.0000      0.0128
  603.0000      0.0128
  604.0000      0.0126
  605.0000      0.0126
  606.0000      0.0126
  607.0000      0.0125
  608.0000      0.0125
  609.0000      0.0125
  610.0000      0.0125
  611.0000      0.0125
  612.0000      0.0125
  613.0000      0.0125
  614.0000      0.0125
  615.0000      0.0125
  616.0000      0.0125
  617.0000      0.0124
  618.0000      0.0123
  619.0000      0.0123
  620.0000      0.0122
  621.0000      0.0121
  622.0000      0.0120
  623.0000      0.0120
  624.0000      0.0119
  625.0000      0.0118
  626.0000      0.0118
  627.0000      0.0118
  628.0000      0.0118
  629.0000      0.0117
  630.0000      0.0117
  631.0000      0.0117
  632.0000      0.0117
  633.0000      0.0117
  634.0000      0.0116
  635.0000      0.0116
  636.0000      0.0117
  637.0000      0.0116
  638.0000      0.0116
  639.0000      0.0116
  640.0000      0.0116
  641.0000      0.0115
  642.0000      0.0115
  643.0000      0.0115
  644.0000      0.0114
  645.0000      0.0114
  646.0000      0.0113
  647.0000      0.0112
  648.0000      0.0112
  649.0000      0.0112
  650.0000      0.0112
  651.0000      0.0112
  652.0000      0.0111
  653.0000      0.0111
  654.0000      0.0110
  655.0000      0.0110
  656.0000      0.0110
  657.0000      0.0110
  658.0000      0.0109
  659.0000      0.0109
  660.0000      0.0108
  661.0000      0.0108
  662.0000      0.0108
  663.0000      0.0108
  664.0000      0.0107
  665.0000      0.0107
  666.0000      0.0107
  667.0000      0.0107
  668.0000      0.0107
  669.0000      0.0106
  670.0000      0.0106
  671.0000      0.0105
  672.0000      0.0105
  673.0000      0.0105
  674.0000      0.0105
  675.0000      0.0104
  676.0000      0.0104
  677.0000      0.0104
  678.0000      0.0103
  679.0000      0.0103
  680.0000      0.0103
  681.0000      0.0103
  682.0000      0.0102
  683.0000      0.0102
  684.0000      0.0101
  685.0000      0.0100
  686.0000      0.0100
  687.0000      0.0098
  688.0000      0.0097
  689.0000      0.0096
  690.0000      0.0095
  691.0000      0.0095
  692.0000      0.0094
  693.0000      0.0093
  694.0000      0.0092
  695.0000      0.0091
  696.0000      0.0090
  697.0000      0.0090
  698.0000      0.0089
  699.0000      0.0089
  700.0000      0.0089
  701.0000      0.0088
  702.0000      0.0087
  703.0000      0.0087
  704.0000      0.0087
  705.0000      0.0086
  706.0000      0.0086
  707.0000      0.0085
  708.0000      0.0085
  709.0000      0.0085
  710.0000      0.0085
  711.0000      0.0085
  712.0000      0.0084
  713.0000      0.0084
  714.0000      0.0083
  715.0000      0.0083
  716.0000      0.0082
  717.0000      0.0082
  718.0000      0.0081
  719.0000      0.0081
  720.0000      0.0081
  721.0000      0.0081
  722.0000      0.0081
  723.0000      0.0081
  724.0000      0.0081
  725.0000      0.0081
  726.0000      0.0080
  727.0000      0.0080
  728.0000      0.0079
  729.0000      0.0079
  730.0000      0.0078
  731.0000      0.0077
  732.0000      0.0077
  733.0000      0.0076
  734.0000      0.0076
  735.0000      0.0075
  736.0000      0.0075
  737.0000      0.0074
  738.0000      0.0074
  739.0000      0.0073
  740.0000      0.0073
  741.0000      0.0072
  742.0000      0.0072
  743.0000      0.0072
  744.0000      0.0071
  745.0000      0.0071
  746.0000      0.0071
  747.0000      0.0070
  748.0000      0.0069
  749.0000      0.0069
  750.0000      0.0069
  751.0000      0.0068
  752.0000      0.0068
  753.0000      0.0069
  754.0000      0.0069
  755.0000      0.0069
  756.0000      0.0070
  757.0000      0.0069
  758.0000      0.0069
  759.0000      0.0069
  760.0000      0.0069
  761.0000      0.0069
  762.0000      0.0070
  763.0000      0.0070
  764.0000      0.0070
  765.0000      0.0070
  766.0000      0.0069
  767.0000      0.0069
  768.0000      0.0069
  769.0000      0.0069
  770.0000      0.0069
  771.0000      0.0068
  772.0000      0.0069
  773.0000      0.0069
  774.0000      0.0069
  775.0000      0.0069
  776.0000      0.0069
  777.0000      0.0069
  778.0000      0.0069
  779.0000      0.0069
  780.0000      0.0069
  781.0000      0.0069
  782.0000      0.0069
  783.0000      0.0069
  784.0000      0.0069
  785.0000      0.0069
  786.0000      0.0069
  787.0000      0.0070
  788.0000      0.0070
  789.0000      0.0070
  790.0000      0.0070
  791.0000      0.0070
  792.0000      0.0070
  793.0000      0.0070
  794.0000      0.0070
  795.0000      0.0069
  796.0000      0.0069
  797.0000      0.0069
  798.0000      0.0069
  799.0000      0.0069
  800.0000      0.0068
