Start Wavelength:    200.0000
End Wavelength:    800.0000
Read Mode:  ABS
Read Average:      0.1000
Nanometer Interval:      1.0000
Time:      0.0000

  200.0000      2.6221
  201.0000      2.2297
  202.0000      2.2076
  203.0000      2.0738
  204.0000      1.7862
  205.0000      1.5638
  206.0000      1.3946
  207.0000      1.2323
  208.0000      1.0965
  209.0000      0.9685
  210.0000      0.8661
  211.0000      0.7817
  212.0000      0.7072
  213.0000      0.6405
  214.0000      0.5914
  215.0000      0.5514
  216.0000      0.5178
  217.0000      0.4859
  218.0000      0.4627
  219.0000      0.4428
  220.0000      0.4273
  221.0000      0.4127
  222.0000      0.3999
  223.0000      0.3889
  224.0000      0.3781
  225.0000      0.3697
  226.0000      0.3624
  227.0000      0.3547
  228.0000      0.3475
  229.0000      0.3406
  230.0000      0.3344
  231.0000      0.3284
  232.0000      0.3233
  233.0000      0.3166
  234.0000      0.3116
  235.0000      0.3073
  236.0000      0.3021
  237.0000      0.2975
  238.0000      0.2934
  239.0000      0.2883
  240.0000      0.2854
  241.0000      0.2812
  242.0000      0.2774
  243.0000      0.2740
  244.0000      0.2706
  245.0000      0.2675
  246.0000      0.2648
  247.0000      0.2619
  248.0000      0.2589
  249.0000      0.2559
  250.0000      0.2545
  251.0000      0.2519
  252.0000      0.2492
  253.0000      0.2477
  254.0000      0.2451
  255.0000      0.2438
  256.0000      0.2416
  257.0000      0.2394
  258.0000      0.2373
  259.0000      0.2354
  260.0000      0.2333
  261.0000      0.2312
  262.0000      0.2291
  263.0000      0.2269
  264.0000      0.2245
  265.0000      0.2228
  266.0000      0.2203
  267.0000      0.2182
  268.0000      0.2159
  269.0000      0.2132
  270.0000      0.2107
  271.0000      0.2093
  272.0000      0.2066
  273.0000      0.2049
  274.0000      0.2013
  275.0000      0.1994
  276.0000      0.1971
  277.0000      0.1949
  278.0000      0.1919
  279.0000      0.1892
  280.0000      0.1880
  281.0000      0.1854
  282.0000      0.1828
  283.0000      0.1802
  284.0000      0.1771
  285.0000      0.1746
  286.0000      0.1726
  287.0000      0.1699
  288.0000      0.1672
  289.0000      0.1651
  290.0000      0.1625
  291.0000      0.1601
  292.0000      0.1573
  293.0000      0.1556
  294.0000      0.1523
  295.0000      0.1497
  296.0000      0.1485
  297.0000      0.1466
  298.0000      0.1435
  299.0000      0.1413
  300.0000      0.1391
  301.0000      0.1378
  302.0000      0.1361
  303.0000      0.1335
  304.0000      0.1313
  305.0000      0.1300
  306.0000      0.1282
  307.0000      0.1265
  308.0000      0.1254
  309.0000      0.1234
  310.0000      0.1215
  311.0000      0.1197
  312.0000      0.1182
  313.0000      0.1163
  314.0000      0.1147
  315.0000      0.1133
  316.0000      0.1115
  317.0000      0.1105
  318.0000      0.1086
  319.0000      0.1064
  320.0000      0.1056
  321.0000      0.1058
  322.0000      0.1020
  323.0000      0.1006
  324.0000      0.1000
  325.0000      0.0985
  326.0000      0.0966
  327.0000      0.0956
  328.0000      0.0945
  329.0000      0.0930
  330.0000      0.0916
  331.0000      0.0904
  332.0000      0.0894
  333.0000      0.0877
  334.0000      0.0867
  335.0000      0.0855
  336.0000      0.0845
  337.0000      0.0832
  338.0000      0.0822
  339.0000      0.0814
  340.0000      0.0806
  341.0000      0.0791
  342.0000      0.0779
  343.0000      0.0773
  344.0000      0.0765
  345.0000      0.0754
  346.0000      0.0741
  347.0000      0.0728
  348.0000      0.0724
  349.0000      0.0715
  350.0000      0.0704
  351.0000      0.0692
  352.0000      0.0685
  353.0000      0.0674
  354.0000      0.0669
  355.0000      0.0660
  356.0000      0.0654
  357.0000      0.0652
  358.0000      0.0638
  359.0000      0.0629
  360.0000      0.0626
  361.0000      0.0625
  362.0000      0.0610
  363.0000      0.0592
  364.0000      0.0598
  365.0000      0.0588
  366.0000      0.0578
  367.0000      0.0575
  368.0000      0.0561
  369.0000      0.0550
  370.0000      0.0561
  371.0000      0.0553
  372.0000      0.0540
  373.0000      0.0530
  374.0000      0.0534
  375.0000      0.0530
  376.0000      0.0517
  377.0000      0.0503
  378.0000      0.0505
  379.0000      0.0498
  380.0000      0.0493
  381.0000      0.0482
  382.0000      0.0481
  383.0000      0.0470
  384.0000      0.0469
  385.0000      0.0467
  386.0000      0.0453
  387.0000      0.0446
  388.0000      0.0449
  389.0000      0.0444
  390.0000      0.0439
  391.0000      0.0432
  392.0000      0.0425
  393.0000      0.0419
  394.0000      0.0417
  395.0000      0.0411
  396.0000      0.0405
  397.0000      0.0404
  398.0000      0.0401
  399.0000      0.0396
  400.0000      0.0385
  401.0000      0.0383
  402.0000      0.0383
  403.0000      0.0376
  404.0000      0.0374
  405.0000      0.0372
  406.0000      0.0366
  407.0000      0.0358
  408.0000      0.0357
  409.0000      0.0356
  410.0000      0.0349
  411.0000      0.0344
  412.0000      0.0344
  413.0000      0.0343
  414.0000      0.0330
  415.0000      0.0332
  416.0000      0.0335
  417.0000      0.0332
  418.0000      0.0327
  419.0000      0.0324
  420.0000      0.0321
  421.0000      0.0317
  422.0000      0.0314
  423.0000      0.0311
  424.0000      0.0308
  425.0000      0.0305
  426.0000      0.0301
  427.0000      0.0299
  428.0000      0.0295
  429.0000      0.0293
  430.0000      0.0290
  431.0000      0.0288
  432.0000      0.0284
  433.0000      0.0282
  434.0000      0.0278
  435.0000      0.0277
  436.0000      0.0274
  437.0000      0.0270
  438.0000      0.0269
  439.0000      0.0265
  440.0000      0.0263
  441.0000      0.0260
  442.0000      0.0258
  443.0000      0.0256
  444.0000      0.0254
  445.0000      0.0252
  446.0000      0.0251
  447.0000      0.0249
  448.0000      0.0247
  449.0000      0.0246
  450.0000      0.0244
  451.0000      0.0242
  452.0000      0.0239
  453.0000      0.0237
  454.0000      0.0235
  455.0000      0.0233
  456.0000      0.0231
  457.0000      0.0229
  458.0000      0.0228
  459.0000      0.0225
  460.0000      0.0224
  461.0000      0.0223
  462.0000      0.0221
  463.0000      0.0220
  464.0000      0.0219
  465.0000      0.0218
  466.0000      0.0217
  467.0000      0.0216
  468.0000      0.0214
  469.0000      0.0212
  470.0000      0.0210
  471.0000      0.0209
  472.0000      0.0208
  473.0000      0.0207
  474.0000      0.0206
  475.0000      0.0205
  476.0000      0.0205
  477.0000      0.0204
  478.0000      0.0202
  479.0000      0.0201
  480.0000      0.0200
  481.0000      0.0199
  482.0000      0.0198
  483.0000      0.0197
  484.0000      0.0196
  485.0000      0.0195
  486.0000      0.0193
  487.0000      0.0191
  488.0000      0.0190
  489.0000      0.0188
  490.0000      0.0186
  491.0000      0.0185
  492.0000      0.0184
  493.0000      0.0183
  494.0000      0.0182
  495.0000      0.0180
  496.0000      0.0179
  497.0000      0.0178
  498.0000      0.0178
  499.0000      0.0177
  500.0000      0.0176
  501.0000      0.0174
  502.0000      0.0173
  503.0000      0.0172
  504.0000      0.0170
  505.0000      0.0169
  506.0000      0.0167
  507.0000      0.0166
  508.0000      0.0165
  509.0000      0.0164
  510.0000      0.0163
  511.0000      0.0162
  512.0000      0.0161
  513.0000      0.0160
  514.0000      0.0159
  515.0000      0.0158
  516.0000      0.0157
  517.0000      0.0156
  518.0000      0.0155
  519.0000      0.0155
  520.0000      0.0154
  521.0000      0.0154
  522.0000      0.0153
  523.0000      0.0152
  524.0000      0.0152
  525.0000      0.0151
  526.0000      0.0150
  527.0000      0.0150
  528.0000      0.0149
  529.0000      0.0148
  530.0000      0.0147
  531.0000      0.0146
  532.0000      0.0145
  533.0000      0.0145
  534.0000      0.0144
  535.0000      0.0144
  536.0000      0.0143
  537.0000      0.0143
  538.0000      0.0142
  539.0000      0.0141
  540.0000      0.0142
  541.0000      0.0141
  542.0000      0.0141
  543.0000      0.0141
  544.0000      0.0140
  545.0000      0.0139
  546.0000      0.0139
  547.0000      0.0138
  548.0000      0.0138
  549.0000      0.0137
  550.0000      0.0136
  551.0000      0.0136
  552.0000      0.0135
  553.0000      0.0134
  554.0000      0.0133
  555.0000      0.0134
  556.0000      0.0134
  557.0000      0.0142
  558.0000      0.0141
  559.0000      0.0140
  560.0000      0.0139
  561.0000      0.0138
  562.0000      0.0137
  563.0000      0.0137
  564.0000      0.0136
  565.0000      0.0135
  566.0000      0.0134
  567.0000      0.0132
  568.0000      0.0132
  569.0000      0.0131
  570.0000      0.0130
  571.0000      0.0130
  572.0000      0.0130
  573.0000      0.0129
  574.0000      0.0128
  575.0000      0.0128
  576.0000      0.0127
  577.0000      0.0126
  578.0000      0.0126
  579.0000      0.0126
  580.0000      0.0126
  581.0000      0.0126
  582.0000      0.0125
  583.0000      0.0125
  584.0000      0.0125
  585.0000      0.0126
  586.0000      0.0126
  587.0000      0.0126
  588.0000      0.0125
  589.0000      0.0124
  590.0000      0.0124
  591.0000      0.0123
  592.0000      0.0123
  593.0000      0.0123
  594.0000      0.0123
  595.0000      0.0124
  596.0000      0.0123
  597.0000      0.0123
  598.0000      0.0123
  599.0000      0.0122
  600.0000      0.0122
  601.0000      0.0122
  602.0000      0.0121
  603.0000      0.0120
  604.0000      0.0120
  605.0000      0.0120
  606.0000      0.0120
  607.0000      0.0119
  608.0000      0.0119
  609.0000      0.0119
  610.0000      0.0119
  611.0000      0.0119
  612.0000      0.0119
  613.0000      0.0119
  614.0000      0.0119
  615.0000      0.0119
  616.0000      0.0120
  617.0000      0.0122
  618.0000      0.0125
  619.0000      0.0128
  620.0000      0.0130
  621.0000      0.0130
  622.0000      0.0131
  623.0000      0.0133
  624.0000      0.0133
  625.0000      0.0134
  626.0000      0.0134
  627.0000      0.0134
  628.0000      0.0133
  629.0000      0.0132
  630.0000      0.0132
  631.0000      0.0131
  632.0000      0.0129
  633.0000      0.0128
  634.0000      0.0126
  635.0000      0.0125
  636.0000      0.0124
  637.0000      0.0122
  638.0000      0.0121
  639.0000      0.0119
  640.0000      0.0118
  641.0000      0.0117
  642.0000      0.0116
  643.0000      0.0115
  644.0000      0.0114
  645.0000      0.0113
  646.0000      0.0111
  647.0000      0.0111
  648.0000      0.0110
  649.0000      0.0109
  650.0000      0.0109
  651.0000      0.0108
  652.0000      0.0107
  653.0000      0.0106
  654.0000      0.0105
  655.0000      0.0104
  656.0000      0.0103
  657.0000      0.0103
  658.0000      0.0102
  659.0000      0.0101
  660.0000      0.0100
  661.0000      0.0099
  662.0000      0.0099
  663.0000      0.0098
  664.0000      0.0098
  665.0000      0.0099
  666.0000      0.0099
  667.0000      0.0098
  668.0000      0.0098
  669.0000      0.0097
  670.0000      0.0097
  671.0000      0.0095
  672.0000      0.0095
  673.0000      0.0093
  674.0000      0.0092
  675.0000      0.0092
  676.0000      0.0091
  677.0000      0.0091
  678.0000      0.0091
  679.0000      0.0091
  680.0000      0.0090
  681.0000      0.0090
  682.0000      0.0090
  683.0000      0.0090
  684.0000      0.0090
  685.0000      0.0089
  686.0000      0.0090
  687.0000      0.0089
  688.0000      0.0089
  689.0000      0.0089
  690.0000      0.0088
  691.0000      0.0088
  692.0000      0.0088
  693.0000      0.0087
  694.0000      0.0087
  695.0000      0.0087
  696.0000      0.0087
  697.0000      0.0086
  698.0000      0.0086
  699.0000      0.0086
  700.0000      0.0086
  701.0000      0.0085
  702.0000      0.0085
  703.0000      0.0085
  704.0000      0.0084
  705.0000      0.0084
  706.0000      0.0083
  707.0000      0.0082
  708.0000      0.0082
  709.0000      0.0082
  710.0000      0.0082
  711.0000      0.0082
  712.0000      0.0082
  713.0000      0.0083
  714.0000      0.0084
  715.0000      0.0083
  716.0000      0.0083
  717.0000      0.0083
  718.0000      0.0083
  719.0000      0.0083
  720.0000      0.0083
  721.0000      0.0083
  722.0000      0.0083
  723.0000      0.0083
  724.0000      0.0083
  725.0000      0.0082
  726.0000      0.0082
  727.0000      0.0082
  728.0000      0.0081
  729.0000      0.0081
  730.0000      0.0080
  731.0000      0.0080
  732.0000      0.0079
  733.0000      0.0078
  734.0000      0.0077
  735.0000      0.0077
  736.0000      0.0074
  737.0000      0.0074
  738.0000      0.0073
  739.0000      0.0073
  740.0000      0.0073
  741.0000      0.0073
  742.0000      0.0072
  743.0000      0.0072
  744.0000      0.0072
  745.0000      0.0072
  746.0000      0.0072
  747.0000      0.0072
  748.0000      0.0072
  749.0000      0.0072
  750.0000      0.0072
  751.0000      0.0072
  752.0000      0.0071
  753.0000      0.0072
  754.0000      0.0072
  755.0000      0.0072
  756.0000      0.0073
  757.0000      0.0072
  758.0000      0.0073
  759.0000      0.0073
  760.0000      0.0073
  761.0000      0.0073
  762.0000      0.0073
  763.0000      0.0073
  764.0000      0.0073
  765.0000      0.0072
  766.0000      0.0071
  767.0000      0.0071
  768.0000      0.0071
  769.0000      0.0070
  770.0000      0.0069
  771.0000      0.0069
  772.0000      0.0069
  773.0000      0.0069
  774.0000      0.0068
  775.0000      0.0068
  776.0000      0.0068
  777.0000      0.0069
  778.0000      0.0070
  779.0000      0.0071
  780.0000      0.0071
  781.0000      0.0072
  782.0000      0.0072
  783.0000      0.0073
  784.0000      0.0074
  785.0000      0.0074
  786.0000      0.0075
  787.0000      0.0076
  788.0000      0.0076
  789.0000      0.0076
  790.0000      0.0077
  791.0000      0.0078
  792.0000      0.0079
  793.0000      0.0079
  794.0000      0.0079
  795.0000      0.0079
  796.0000      0.0079
  797.0000      0.0080
  798.0000      0.0080
  799.0000      0.0080
  800.0000      0.0079
