Start Wavelength:    200.0000
End Wavelength:    800.0000
Read Mode:  ABS
Read Average:      0.1000
Nanometer Interval:      1.0000
Time:      0.0000

  200.0000      2.3210
  201.0000      2.3546
  202.0000      2.2472
  203.0000      2.3500
  204.0000      2.1121
  205.0000      1.8027
  206.0000      1.6130
  207.0000      1.4070
  208.0000      1.2114
  209.0000      1.0272
  210.0000      0.8802
  211.0000      0.7592
  212.0000      0.6577
  213.0000      0.5661
  214.0000      0.4979
  215.0000      0.4434
  216.0000      0.3991
  217.0000      0.3611
  218.0000      0.3348
  219.0000      0.3122
  220.0000      0.2949
  221.0000      0.2796
  222.0000      0.2688
  223.0000      0.2592
  224.0000      0.2509
  225.0000      0.2436
  226.0000      0.2376
  227.0000      0.2321
  228.0000      0.2273
  229.0000      0.2225
  230.0000      0.2176
  231.0000      0.2137
  232.0000      0.2095
  233.0000      0.2054
  234.0000      0.2024
  235.0000      0.1988
  236.0000      0.1951
  237.0000      0.1920
  238.0000      0.1897
  239.0000      0.1708
  240.0000      0.1839
  241.0000      0.1807
  242.0000      0.1783
  243.0000      0.1765
  244.0000      0.1740
  245.0000      0.1719
  246.0000      0.1699
  247.0000      0.1680
  248.0000      0.1663
  249.0000      0.1651
  250.0000      0.1638
  251.0000      0.1622
  252.0000      0.1604
  253.0000      0.1597
  254.0000      0.1581
  255.0000      0.1571
  256.0000      0.1557
  257.0000      0.1538
  258.0000      0.1524
  259.0000      0.1513
  260.0000      0.1500
  261.0000      0.1481
  262.0000      0.1461
  263.0000      0.1453
  264.0000      0.1437
  265.0000      0.1426
  266.0000      0.1411
  267.0000      0.1391
  268.0000      0.1376
  269.0000      0.1360
  270.0000      0.1340
  271.0000      0.1331
  272.0000      0.1306
  273.0000      0.1288
  274.0000      0.1271
  275.0000      0.1253
  276.0000      0.1235
  277.0000      0.1211
  278.0000      0.1190
  279.0000      0.1176
  280.0000      0.1161
  281.0000      0.1147
  282.0000      0.1123
  283.0000      0.1105
  284.0000      0.1086
  285.0000      0.1071
  286.0000      0.1050
  287.0000      0.1030
  288.0000      0.1009
  289.0000      0.1001
  290.0000      0.0975
  291.0000      0.0961
  292.0000      0.0940
  293.0000      0.0926
  294.0000      0.0900
  295.0000      0.0884
  296.0000      0.0872
  297.0000      0.0859
  298.0000      0.0837
  299.0000      0.0823
  300.0000      0.0817
  301.0000      0.0802
  302.0000      0.0792
  303.0000      0.0767
  304.0000      0.0759
  305.0000      0.0750
  306.0000      0.0736
  307.0000      0.0723
  308.0000      0.0716
  309.0000      0.0700
  310.0000      0.0692
  311.0000      0.0675
  312.0000      0.0667
  313.0000      0.0657
  314.0000      0.0649
  315.0000      0.0638
  316.0000      0.0628
  317.0000      0.0624
  318.0000      0.0612
  319.0000      0.0598
  320.0000      0.0592
  321.0000      0.0596
  322.0000      0.0566
  323.0000      0.0562
  324.0000      0.0556
  325.0000      0.0546
  326.0000      0.0532
  327.0000      0.0527
  328.0000      0.0522
  329.0000      0.0514
  330.0000      0.0503
  331.0000      0.0492
  332.0000      0.0489
  333.0000      0.0478
  334.0000      0.0475
  335.0000      0.0468
  336.0000      0.0461
  337.0000      0.0454
  338.0000      0.0448
  339.0000      0.0442
  340.0000      0.0439
  341.0000      0.0427
  342.0000      0.0420
  343.0000      0.0418
  344.0000      0.0409
  345.0000      0.0407
  346.0000      0.0399
  347.0000      0.0387
  348.0000      0.0390
  349.0000      0.0385
  350.0000      0.0378
  351.0000      0.0372
  352.0000      0.0366
  353.0000      0.0359
  354.0000      0.0355
  355.0000      0.0352
  356.0000      0.0350
  357.0000      0.0345
  358.0000      0.0360
  359.0000      0.0352
  360.0000      0.0349
  361.0000      0.0330
  362.0000      0.0334
  363.0000      0.0329
  364.0000      0.0326
  365.0000      0.0320
  366.0000      0.0310
  367.0000      0.0307
  368.0000      0.0301
  369.0000      0.0301
  370.0000      0.0287
  371.0000      0.0289
  372.0000      0.0278
  373.0000      0.0276
  374.0000      0.0285
  375.0000      0.0281
  376.0000      0.0269
  377.0000      0.0269
  378.0000      0.0268
  379.0000      0.0263
  380.0000      0.0254
  381.0000      0.0249
  382.0000      0.0260
  383.0000      0.0244
  384.0000      0.0257
  385.0000      0.0249
  386.0000      0.0242
  387.0000      0.0240
  388.0000      0.0240
  389.0000      0.0240
  390.0000      0.0237
  391.0000      0.0236
  392.0000      0.0234
  393.0000      0.0234
  394.0000      0.0238
  395.0000      0.0232
  396.0000      0.0226
  397.0000      0.0230
  398.0000      0.0232
  399.0000      0.0226
  400.0000      0.0221
  401.0000      0.0225
  402.0000      0.0226
  403.0000      0.0221
  404.0000      0.0218
  405.0000      0.0221
  406.0000      0.0219
  407.0000      0.0213
  408.0000      0.0216
  409.0000      0.0214
  410.0000      0.0210
  411.0000      0.0212
  412.0000      0.0212
  413.0000      0.0209
  414.0000      0.0200
  415.0000      0.0203
  416.0000      0.0184
  417.0000      0.0180
  418.0000      0.0179
  419.0000      0.0174
  420.0000      0.0170
  421.0000      0.0167
  422.0000      0.0164
  423.0000      0.0162
  424.0000      0.0160
  425.0000      0.0159
  426.0000      0.0158
  427.0000      0.0160
  428.0000      0.0159
  429.0000      0.0160
  430.0000      0.0160
  431.0000      0.0161
  432.0000      0.0159
  433.0000      0.0159
  434.0000      0.0158
  435.0000      0.0158
  436.0000      0.0156
  437.0000      0.0157
  438.0000      0.0157
  439.0000      0.0156
  440.0000      0.0156
  441.0000      0.0155
  442.0000      0.0155
  443.0000      0.0157
  444.0000      0.0161
  445.0000      0.0165
  446.0000      0.0171
  447.0000      0.0175
  448.0000      0.0177
  449.0000      0.0179
  450.0000      0.0178
  451.0000      0.0178
  452.0000      0.0176
  453.0000      0.0175
  454.0000      0.0173
  455.0000      0.0172
  456.0000      0.0171
  457.0000      0.0169
  458.0000      0.0169
  459.0000      0.0166
  460.0000      0.0165
  461.0000      0.0162
  462.0000      0.0159
  463.0000      0.0155
  464.0000      0.0151
  465.0000      0.0148
  466.0000      0.0146
  467.0000      0.0144
  468.0000      0.0142
  469.0000      0.0141
  470.0000      0.0139
  471.0000      0.0138
  472.0000      0.0136
  473.0000      0.0135
  474.0000      0.0134
  475.0000      0.0132
  476.0000      0.0130
  477.0000      0.0128
  478.0000      0.0126
  479.0000      0.0123
  480.0000      0.0122
  481.0000      0.0120
  482.0000      0.0119
  483.0000      0.0118
  484.0000      0.0118
  485.0000      0.0118
  486.0000      0.0117
  487.0000      0.0116
  488.0000      0.0117
  489.0000      0.0116
  490.0000      0.0117
  491.0000      0.0117
  492.0000      0.0118
  493.0000      0.0118
  494.0000      0.0119
  495.0000      0.0119
  496.0000      0.0119
  497.0000      0.0118
  498.0000      0.0118
  499.0000      0.0117
  500.0000      0.0115
  501.0000      0.0114
  502.0000      0.0113
  503.0000      0.0111
  504.0000      0.0109
  505.0000      0.0108
  506.0000      0.0107
  507.0000      0.0106
  508.0000      0.0105
  509.0000      0.0104
  510.0000      0.0103
  511.0000      0.0103
  512.0000      0.0102
  513.0000      0.0102
  514.0000      0.0101
  515.0000      0.0101
  516.0000      0.0100
  517.0000      0.0099
  518.0000      0.0098
  519.0000      0.0098
  520.0000      0.0098
  521.0000      0.0098
  522.0000      0.0097
  523.0000      0.0097
  524.0000      0.0097
  525.0000      0.0097
  526.0000      0.0097
  527.0000      0.0096
  528.0000      0.0097
  529.0000      0.0097
  530.0000      0.0096
  531.0000      0.0096
  532.0000      0.0096
  533.0000      0.0095
  534.0000      0.0094
  535.0000      0.0094
  536.0000      0.0094
  537.0000      0.0093
  538.0000      0.0093
  539.0000      0.0093
  540.0000      0.0093
  541.0000      0.0093
  542.0000      0.0094
  543.0000      0.0093
  544.0000      0.0093
  545.0000      0.0093
  546.0000      0.0093
  547.0000      0.0092
  548.0000      0.0092
  549.0000      0.0091
  550.0000      0.0091
  551.0000      0.0091
  552.0000      0.0090
  553.0000      0.0090
  554.0000      0.0090
  555.0000      0.0090
  556.0000      0.0090
  557.0000      0.0102
  558.0000      0.0101
  559.0000      0.0101
  560.0000      0.0100
  561.0000      0.0099
  562.0000      0.0098
  563.0000      0.0097
  564.0000      0.0096
  565.0000      0.0096
  566.0000      0.0095
  567.0000      0.0094
  568.0000      0.0094
  569.0000      0.0093
  570.0000      0.0092
  571.0000      0.0092
  572.0000      0.0091
  573.0000      0.0091
  574.0000      0.0090
  575.0000      0.0090
  576.0000      0.0090
  577.0000      0.0089
  578.0000      0.0089
  579.0000      0.0087
  580.0000      0.0085
  581.0000      0.0084
  582.0000      0.0083
  583.0000      0.0083
  584.0000      0.0082
  585.0000      0.0082
  586.0000      0.0081
  587.0000      0.0080
  588.0000      0.0079
  589.0000      0.0079
  590.0000      0.0078
  591.0000      0.0077
  592.0000      0.0076
  593.0000      0.0076
  594.0000      0.0076
  595.0000      0.0075
  596.0000      0.0074
  597.0000      0.0073
  598.0000      0.0073
  599.0000      0.0072
  600.0000      0.0071
  601.0000      0.0071
  602.0000      0.0071
  603.0000      0.0071
  604.0000      0.0070
  605.0000      0.0070
  606.0000      0.0070
  607.0000      0.0069
  608.0000      0.0069
  609.0000      0.0069
  610.0000      0.0069
  611.0000      0.0070
  612.0000      0.0069
  613.0000      0.0070
  614.0000      0.0070
  615.0000      0.0070
  616.0000      0.0070
  617.0000      0.0069
  618.0000      0.0068
  619.0000      0.0068
  620.0000      0.0068
  621.0000      0.0068
  622.0000      0.0068
  623.0000      0.0067
  624.0000      0.0067
  625.0000      0.0067
  626.0000      0.0067
  627.0000      0.0067
  628.0000      0.0067
  629.0000      0.0067
  630.0000      0.0067
  631.0000      0.0067
  632.0000      0.0067
  633.0000      0.0067
  634.0000      0.0067
  635.0000      0.0068
  636.0000      0.0069
  637.0000      0.0070
  638.0000      0.0070
  639.0000      0.0071
  640.0000      0.0072
  641.0000      0.0072
  642.0000      0.0074
  643.0000      0.0074
  644.0000      0.0075
  645.0000      0.0075
  646.0000      0.0076
  647.0000      0.0077
  648.0000      0.0077
  649.0000      0.0078
  650.0000      0.0078
  651.0000      0.0077
  652.0000      0.0077
  653.0000      0.0075
  654.0000      0.0073
  655.0000      0.0073
  656.0000      0.0071
  657.0000      0.0070
  658.0000      0.0069
  659.0000      0.0068
  660.0000      0.0069
  661.0000      0.0070
  662.0000      0.0070
  663.0000      0.0071
  664.0000      0.0071
  665.0000      0.0072
  666.0000      0.0072
  667.0000      0.0072
  668.0000      0.0073
  669.0000      0.0075
  670.0000      0.0076
  671.0000      0.0077
  672.0000      0.0078
  673.0000      0.0078
  674.0000      0.0079
  675.0000      0.0079
  676.0000      0.0079
  677.0000      0.0079
  678.0000      0.0078
  679.0000      0.0076
  680.0000      0.0075
  681.0000      0.0073
  682.0000      0.0073
  683.0000      0.0071
  684.0000      0.0070
  685.0000      0.0068
  686.0000      0.0066
  687.0000      0.0064
  688.0000      0.0061
  689.0000      0.0060
  690.0000      0.0057
  691.0000      0.0056
  692.0000      0.0055
  693.0000      0.0053
  694.0000      0.0052
  695.0000      0.0051
  696.0000      0.0050
  697.0000      0.0049
  698.0000      0.0047
  699.0000      0.0047
  700.0000      0.0047
  701.0000      0.0046
  702.0000      0.0046
  703.0000      0.0046
  704.0000      0.0045
  705.0000      0.0045
  706.0000      0.0044
  707.0000      0.0044
  708.0000      0.0043
  709.0000      0.0043
  710.0000      0.0043
  711.0000      0.0043
  712.0000      0.0043
  713.0000      0.0043
  714.0000      0.0043
  715.0000      0.0042
  716.0000      0.0041
  717.0000      0.0041
  718.0000      0.0040
  719.0000      0.0039
  720.0000      0.0038
  721.0000      0.0038
  722.0000      0.0037
  723.0000      0.0036
  724.0000      0.0036
  725.0000      0.0035
  726.0000      0.0035
  727.0000      0.0034
  728.0000      0.0034
  729.0000      0.0033
  730.0000      0.0032
  731.0000      0.0032
  732.0000      0.0032
  733.0000      0.0031
  734.0000      0.0031
  735.0000      0.0030
  736.0000      0.0032
  737.0000      0.0032
  738.0000      0.0030
  739.0000      0.0030
  740.0000      0.0030
  741.0000      0.0029
  742.0000      0.0029
  743.0000      0.0029
  744.0000      0.0029
  745.0000      0.0029
  746.0000      0.0029
  747.0000      0.0029
  748.0000      0.0028
  749.0000      0.0029
  750.0000      0.0029
  751.0000      0.0029
  752.0000      0.0029
  753.0000      0.0029
  754.0000      0.0028
  755.0000      0.0029
  756.0000      0.0029
  757.0000      0.0029
  758.0000      0.0030
  759.0000      0.0031
  760.0000      0.0031
  761.0000      0.0031
  762.0000      0.0032
  763.0000      0.0033
  764.0000      0.0033
  765.0000      0.0034
  766.0000      0.0034
  767.0000      0.0035
  768.0000      0.0035
  769.0000      0.0037
  770.0000      0.0037
  771.0000      0.0037
  772.0000      0.0037
  773.0000      0.0039
  774.0000      0.0038
  775.0000      0.0038
  776.0000      0.0038
  777.0000      0.0038
  778.0000      0.0038
  779.0000      0.0038
  780.0000      0.0038
  781.0000      0.0038
  782.0000      0.0037
  783.0000      0.0038
  784.0000      0.0037
  785.0000      0.0037
  786.0000      0.0037
  787.0000      0.0036
  788.0000      0.0035
  789.0000      0.0035
  790.0000      0.0034
  791.0000      0.0034
  792.0000      0.0033
  793.0000      0.0032
  794.0000      0.0031
  795.0000      0.0031
  796.0000      0.0029
  797.0000      0.0029
  798.0000      0.0028
  799.0000      0.0027
  800.0000      0.0026
