Start Wavelength:    200.0000
End Wavelength:    800.0000
Read Mode:  ABS
Read Average:      0.1000
Nanometer Interval:      1.0000
Time:      0.0000

  200.0000      2.5129
  201.0000      2.5307
  202.0000      2.3141
  203.0000      2.2831
  204.0000      2.1812
  205.0000      1.9454
  206.0000      1.7473
  207.0000      1.5265
  208.0000      1.3090
  209.0000      1.1069
  210.0000      0.9391
  211.0000      0.8021
  212.0000      0.6859
  213.0000      0.5814
  214.0000      0.5041
  215.0000      0.4422
  216.0000      0.3924
  217.0000      0.3502
  218.0000      0.3195
  219.0000      0.2946
  220.0000      0.2754
  221.0000      0.2593
  222.0000      0.2472
  223.0000      0.2373
  224.0000      0.2289
  225.0000      0.2208
  226.0000      0.2154
  227.0000      0.2096
  228.0000      0.2052
  229.0000      0.2001
  230.0000      0.1960
  231.0000      0.1922
  232.0000      0.1886
  233.0000      0.1849
  234.0000      0.1811
  235.0000      0.1783
  236.0000      0.1751
  237.0000      0.1722
  238.0000      0.1699
  239.0000      0.1666
  240.0000      0.1645
  241.0000      0.1621
  242.0000      0.1600
  243.0000      0.1582
  244.0000      0.1560
  245.0000      0.1545
  246.0000      0.1524
  247.0000      0.1514
  248.0000      0.1496
  249.0000      0.1478
  250.0000      0.1470
  251.0000      0.1455
  252.0000      0.1440
  253.0000      0.1434
  254.0000      0.1419
  255.0000      0.1411
  256.0000      0.1398
  257.0000      0.1384
  258.0000      0.1369
  259.0000      0.1359
  260.0000      0.1349
  261.0000      0.1334
  262.0000      0.1322
  263.0000      0.1308
  264.0000      0.1290
  265.0000      0.1283
  266.0000      0.1263
  267.0000      0.1250
  268.0000      0.1236
  269.0000      0.1218
  270.0000      0.1202
  271.0000      0.1189
  272.0000      0.1176
  273.0000      0.1159
  274.0000      0.1139
  275.0000      0.1123
  276.0000      0.1108
  277.0000      0.1095
  278.0000      0.1074
  279.0000      0.1055
  280.0000      0.1048
  281.0000      0.1037
  282.0000      0.1013
  283.0000      0.0998
  284.0000      0.0983
  285.0000      0.0970
  286.0000      0.0956
  287.0000      0.0939
  288.0000      0.0921
  289.0000      0.0912
  290.0000      0.0896
  291.0000      0.0883
  292.0000      0.0860
  293.0000      0.0848
  294.0000      0.0828
  295.0000      0.0814
  296.0000      0.0804
  297.0000      0.0789
  298.0000      0.0778
  299.0000      0.0763
  300.0000      0.0757
  301.0000      0.0746
  302.0000      0.0730
  303.0000      0.0715
  304.0000      0.0708
  305.0000      0.0699
  306.0000      0.0686
  307.0000      0.0672
  308.0000      0.0668
  309.0000      0.0659
  310.0000      0.0644
  311.0000      0.0631
  312.0000      0.0622
  313.0000      0.0620
  314.0000      0.0611
  315.0000      0.0596
  316.0000      0.0586
  317.0000      0.0580
  318.0000      0.0568
  319.0000      0.0560
  320.0000      0.0548
  321.0000      0.0543
  322.0000      0.0508
  323.0000      0.0503
  324.0000      0.0502
  325.0000      0.0489
  326.0000      0.0478
  327.0000      0.0479
  328.0000      0.0473
  329.0000      0.0462
  330.0000      0.0452
  331.0000      0.0450
  332.0000      0.0451
  333.0000      0.0440
  334.0000      0.0436
  335.0000      0.0428
  336.0000      0.0425
  337.0000      0.0422
  338.0000      0.0413
  339.0000      0.0406
  340.0000      0.0404
  341.0000      0.0400
  342.0000      0.0395
  343.0000      0.0390
  344.0000      0.0386
  345.0000      0.0379
  346.0000      0.0375
  347.0000      0.0365
  348.0000      0.0367
  349.0000      0.0360
  350.0000      0.0357
  351.0000      0.0353
  352.0000      0.0348
  353.0000      0.0341
  354.0000      0.0339
  355.0000      0.0334
  356.0000      0.0335
  357.0000      0.0305
  358.0000      0.0320
  359.0000      0.0310
  360.0000      0.0296
  361.0000      0.0295
  362.0000      0.0296
  363.0000      0.0290
  364.0000      0.0286
  365.0000      0.0279
  366.0000      0.0271
  367.0000      0.0272
  368.0000      0.0266
  369.0000      0.0258
  370.0000      0.0256
  371.0000      0.0255
  372.0000      0.0251
  373.0000      0.0247
  374.0000      0.0251
  375.0000      0.0239
  376.0000      0.0233
  377.0000      0.0237
  378.0000      0.0244
  379.0000      0.0227
  380.0000      0.0223
  381.0000      0.0222
  382.0000      0.0229
  383.0000      0.0213
  384.0000      0.0219
  385.0000      0.0210
  386.0000      0.0211
  387.0000      0.0211
  388.0000      0.0210
  389.0000      0.0204
  390.0000      0.0200
  391.0000      0.0206
  392.0000      0.0198
  393.0000      0.0198
  394.0000      0.0195
  395.0000      0.0191
  396.0000      0.0185
  397.0000      0.0187
  398.0000      0.0185
  399.0000      0.0182
  400.0000      0.0177
  401.0000      0.0182
  402.0000      0.0180
  403.0000      0.0172
  404.0000      0.0173
  405.0000      0.0179
  406.0000      0.0173
  407.0000      0.0164
  408.0000      0.0164
  409.0000      0.0166
  410.0000      0.0166
  411.0000      0.0165
  412.0000      0.0162
  413.0000      0.0160
  414.0000      0.0159
  415.0000      0.0158
  416.0000      0.0160
  417.0000      0.0159
  418.0000      0.0158
  419.0000      0.0156
  420.0000      0.0154
  421.0000      0.0152
  422.0000      0.0151
  423.0000      0.0150
  424.0000      0.0147
  425.0000      0.0145
  426.0000      0.0144
  427.0000      0.0143
  428.0000      0.0141
  429.0000      0.0139
  430.0000      0.0138
  431.0000      0.0137
  432.0000      0.0135
  433.0000      0.0133
  434.0000      0.0131
  435.0000      0.0131
  436.0000      0.0129
  437.0000      0.0127
  438.0000      0.0126
  439.0000      0.0125
  440.0000      0.0123
  441.0000      0.0122
  442.0000      0.0120
  443.0000      0.0119
  444.0000      0.0118
  445.0000      0.0117
  446.0000      0.0117
  447.0000      0.0115
  448.0000      0.0115
  449.0000      0.0114
  450.0000      0.0113
  451.0000      0.0112
  452.0000      0.0111
  453.0000      0.0110
  454.0000      0.0109
  455.0000      0.0108
  456.0000      0.0108
  457.0000      0.0107
  458.0000      0.0106
  459.0000      0.0104
  460.0000      0.0103
  461.0000      0.0103
  462.0000      0.0102
  463.0000      0.0101
  464.0000      0.0101
  465.0000      0.0102
  466.0000      0.0101
  467.0000      0.0100
  468.0000      0.0099
  469.0000      0.0098
  470.0000      0.0097
  471.0000      0.0096
  472.0000      0.0095
  473.0000      0.0094
  474.0000      0.0093
  475.0000      0.0092
  476.0000      0.0091
  477.0000      0.0091
  478.0000      0.0089
  479.0000      0.0088
  480.0000      0.0088
  481.0000      0.0087
  482.0000      0.0086
  483.0000      0.0085
  484.0000      0.0085
  485.0000      0.0084
  486.0000      0.0084
  487.0000      0.0083
  488.0000      0.0083
  489.0000      0.0083
  490.0000      0.0083
  491.0000      0.0084
  492.0000      0.0086
  493.0000      0.0087
  494.0000      0.0089
  495.0000      0.0090
  496.0000      0.0091
  497.0000      0.0091
  498.0000      0.0092
  499.0000      0.0093
  500.0000      0.0093
  501.0000      0.0093
  502.0000      0.0093
  503.0000      0.0093
  504.0000      0.0093
  505.0000      0.0093
  506.0000      0.0093
  507.0000      0.0093
  508.0000      0.0094
  509.0000      0.0094
  510.0000      0.0094
  511.0000      0.0094
  512.0000      0.0095
  513.0000      0.0095
  514.0000      0.0096
  515.0000      0.0096
  516.0000      0.0097
  517.0000      0.0097
  518.0000      0.0097
  519.0000      0.0097
  520.0000      0.0098
  521.0000      0.0097
  522.0000      0.0097
  523.0000      0.0096
  524.0000      0.0096
  525.0000      0.0096
  526.0000      0.0096
  527.0000      0.0095
  528.0000      0.0095
  529.0000      0.0095
  530.0000      0.0095
  531.0000      0.0094
  532.0000      0.0093
  533.0000      0.0092
  534.0000      0.0091
  535.0000      0.0090
  536.0000      0.0090
  537.0000      0.0090
  538.0000      0.0090
  539.0000      0.0090
  540.0000      0.0090
  541.0000      0.0090
  542.0000      0.0090
  543.0000      0.0088
  544.0000      0.0086
  545.0000      0.0085
  546.0000      0.0085
  547.0000      0.0084
  548.0000      0.0084
  549.0000      0.0084
  550.0000      0.0083
  551.0000      0.0084
  552.0000      0.0084
  553.0000      0.0085
  554.0000      0.0086
  555.0000      0.0087
  556.0000      0.0087
  557.0000      0.0114
  558.0000      0.0113
  559.0000      0.0112
  560.0000      0.0111
  561.0000      0.0108
  562.0000      0.0107
  563.0000      0.0105
  564.0000      0.0105
  565.0000      0.0105
  566.0000      0.0104
  567.0000      0.0104
  568.0000      0.0103
  569.0000      0.0102
  570.0000      0.0101
  571.0000      0.0100
  572.0000      0.0100
  573.0000      0.0099
  574.0000      0.0099
  575.0000      0.0098
  576.0000      0.0097
  577.0000      0.0095
  578.0000      0.0095
  579.0000      0.0094
  580.0000      0.0093
  581.0000      0.0092
  582.0000      0.0090
  583.0000      0.0088
  584.0000      0.0087
  585.0000      0.0086
  586.0000      0.0085
  587.0000      0.0084
  588.0000      0.0083
  589.0000      0.0083
  590.0000      0.0082
  591.0000      0.0081
  592.0000      0.0080
  593.0000      0.0080
  594.0000      0.0080
  595.0000      0.0080
  596.0000      0.0080
  597.0000      0.0080
  598.0000      0.0080
  599.0000      0.0080
  600.0000      0.0081
  601.0000      0.0081
  602.0000      0.0081
  603.0000      0.0082
  604.0000      0.0081
  605.0000      0.0081
  606.0000      0.0081
  607.0000      0.0081
  608.0000      0.0080
  609.0000      0.0080
  610.0000      0.0080
  611.0000      0.0079
  612.0000      0.0077
  613.0000      0.0076
  614.0000      0.0075
  615.0000      0.0075
  616.0000      0.0074
  617.0000      0.0073
  618.0000      0.0073
  619.0000      0.0073
  620.0000      0.0072
  621.0000      0.0071
  622.0000      0.0071
  623.0000      0.0071
  624.0000      0.0071
  625.0000      0.0071
  626.0000      0.0071
  627.0000      0.0072
  628.0000      0.0072
  629.0000      0.0072
  630.0000      0.0072
  631.0000      0.0072
  632.0000      0.0072
  633.0000      0.0072
  634.0000      0.0071
  635.0000      0.0071
  636.0000      0.0071
  637.0000      0.0070
  638.0000      0.0068
  639.0000      0.0067
  640.0000      0.0065
  641.0000      0.0063
  642.0000      0.0062
  643.0000      0.0060
  644.0000      0.0058
  645.0000      0.0057
  646.0000      0.0055
  647.0000      0.0053
  648.0000      0.0052
  649.0000      0.0051
  650.0000      0.0049
  651.0000      0.0048
  652.0000      0.0046
  653.0000      0.0045
  654.0000      0.0044
  655.0000      0.0043
  656.0000      0.0043
  657.0000      0.0043
  658.0000      0.0043
  659.0000      0.0042
  660.0000      0.0042
  661.0000      0.0042
  662.0000      0.0042
  663.0000      0.0041
  664.0000      0.0041
  665.0000      0.0042
  666.0000      0.0042
  667.0000      0.0042
  668.0000      0.0043
  669.0000      0.0044
  670.0000      0.0045
  671.0000      0.0045
  672.0000      0.0046
  673.0000      0.0047
  674.0000      0.0047
  675.0000      0.0047
  676.0000      0.0048
  677.0000      0.0048
  678.0000      0.0048
  679.0000      0.0048
  680.0000      0.0049
  681.0000      0.0049
  682.0000      0.0048
  683.0000      0.0048
  684.0000      0.0048
  685.0000      0.0047
  686.0000      0.0047
  687.0000      0.0047
  688.0000      0.0047
  689.0000      0.0046
  690.0000      0.0046
  691.0000      0.0045
  692.0000      0.0045
  693.0000      0.0044
  694.0000      0.0044
  695.0000      0.0045
  696.0000      0.0046
  697.0000      0.0048
  698.0000      0.0049
  699.0000      0.0050
  700.0000      0.0052
  701.0000      0.0053
  702.0000      0.0055
  703.0000      0.0055
  704.0000      0.0055
  705.0000      0.0056
  706.0000      0.0058
  707.0000      0.0059
  708.0000      0.0060
  709.0000      0.0061
  710.0000      0.0063
  711.0000      0.0064
  712.0000      0.0064
  713.0000      0.0063
  714.0000      0.0064
  715.0000      0.0064
  716.0000      0.0064
  717.0000      0.0063
  718.0000      0.0062
  719.0000      0.0061
  720.0000      0.0059
  721.0000      0.0057
  722.0000      0.0054
  723.0000      0.0051
  724.0000      0.0048
  725.0000      0.0046
  726.0000      0.0045
  727.0000      0.0044
  728.0000      0.0042
  729.0000      0.0040
  730.0000      0.0039
  731.0000      0.0037
  732.0000      0.0036
  733.0000      0.0036
  734.0000      0.0035
  735.0000      0.0035
  736.0000      0.0033
  737.0000      0.0033
  738.0000      0.0033
  739.0000      0.0034
  740.0000      0.0034
  741.0000      0.0033
  742.0000      0.0033
  743.0000      0.0033
  744.0000      0.0033
  745.0000      0.0033
  746.0000      0.0032
  747.0000      0.0032
  748.0000      0.0031
  749.0000      0.0031
  750.0000      0.0030
  751.0000      0.0029
  752.0000      0.0029
  753.0000      0.0029
  754.0000      0.0028
  755.0000      0.0028
  756.0000      0.0028
  757.0000      0.0028
  758.0000      0.0028
  759.0000      0.0028
  760.0000      0.0028
  761.0000      0.0028
  762.0000      0.0028
  763.0000      0.0027
  764.0000      0.0028
  765.0000      0.0027
  766.0000      0.0027
  767.0000      0.0027
  768.0000      0.0027
  769.0000      0.0027
  770.0000      0.0027
  771.0000      0.0026
  772.0000      0.0026
  773.0000      0.0026
  774.0000      0.0026
  775.0000      0.0025
  776.0000      0.0025
  777.0000      0.0025
  778.0000      0.0026
  779.0000      0.0027
  780.0000      0.0026
  781.0000      0.0027
  782.0000      0.0026
  783.0000      0.0026
  784.0000      0.0026
  785.0000      0.0025
  786.0000      0.0025
  787.0000      0.0025
  788.0000      0.0025
  789.0000      0.0025
  790.0000      0.0025
  791.0000      0.0024
  792.0000      0.0023
  793.0000      0.0023
  794.0000      0.0023
  795.0000      0.0022
  796.0000      0.0022
  797.0000      0.0022
  798.0000      0.0022
  799.0000      0.0021
  800.0000      0.0021
