Start Wavelength:    200.0000
End Wavelength:    800.0000
Read Mode:  ABS
Read Average:      0.1000
Nanometer Interval:      1.0000
Time:      0.0000

  200.0000      2.5129
  201.0000      2.4893
  202.0000      2.2683
  203.0000      2.2074
  204.0000      2.1664
  205.0000      1.8716
  206.0000      1.6533
  207.0000      1.4478
  208.0000      1.2473
  209.0000      1.0490
  210.0000      0.8917
  211.0000      0.7651
  212.0000      0.6568
  213.0000      0.5624
  214.0000      0.4908
  215.0000      0.4339
  216.0000      0.3889
  217.0000      0.3499
  218.0000      0.3221
  219.0000      0.2993
  220.0000      0.2816
  221.0000      0.2674
  222.0000      0.2564
  223.0000      0.2468
  224.0000      0.2389
  225.0000      0.2320
  226.0000      0.2265
  227.0000      0.2211
  228.0000      0.2161
  229.0000      0.2113
  230.0000      0.2074
  231.0000      0.2036
  232.0000      0.1999
  233.0000      0.1955
  234.0000      0.1925
  235.0000      0.1895
  236.0000      0.1862
  237.0000      0.1834
  238.0000      0.1805
  239.0000      0.1779
  240.0000      0.1755
  241.0000      0.1730
  242.0000      0.1707
  243.0000      0.1690
  244.0000      0.1668
  245.0000      0.1649
  246.0000      0.1631
  247.0000      0.1613
  248.0000      0.1598
  249.0000      0.1587
  250.0000      0.1573
  251.0000      0.1560
  252.0000      0.1543
  253.0000      0.1536
  254.0000      0.1527
  255.0000      0.1515
  256.0000      0.1499
  257.0000      0.1487
  258.0000      0.1473
  259.0000      0.1465
  260.0000      0.1450
  261.0000      0.1434
  262.0000      0.1420
  263.0000      0.1408
  264.0000      0.1394
  265.0000      0.1376
  266.0000      0.1361
  267.0000      0.1352
  268.0000      0.1338
  269.0000      0.1323
  270.0000      0.1296
  271.0000      0.1287
  272.0000      0.1273
  273.0000      0.1261
  274.0000      0.1237
  275.0000      0.1221
  276.0000      0.1207
  277.0000      0.1187
  278.0000      0.1168
  279.0000      0.1149
  280.0000      0.1136
  281.0000      0.1119
  282.0000      0.1097
  283.0000      0.1081
  284.0000      0.1063
  285.0000      0.1050
  286.0000      0.1032
  287.0000      0.1015
  288.0000      0.0994
  289.0000      0.0987
  290.0000      0.0963
  291.0000      0.0948
  292.0000      0.0931
  293.0000      0.0914
  294.0000      0.0899
  295.0000      0.0882
  296.0000      0.0869
  297.0000      0.0853
  298.0000      0.0838
  299.0000      0.0828
  300.0000      0.0814
  301.0000      0.0796
  302.0000      0.0786
  303.0000      0.0765
  304.0000      0.0759
  305.0000      0.0753
  306.0000      0.0732
  307.0000      0.0723
  308.0000      0.0722
  309.0000      0.0712
  310.0000      0.0693
  311.0000      0.0681
  312.0000      0.0673
  313.0000      0.0668
  314.0000      0.0653
  315.0000      0.0642
  316.0000      0.0634
  317.0000      0.0630
  318.0000      0.0623
  319.0000      0.0606
  320.0000      0.0599
  321.0000      0.0599
  322.0000      0.0597
  323.0000      0.0592
  324.0000      0.0583
  325.0000      0.0571
  326.0000      0.0563
  327.0000      0.0566
  328.0000      0.0557
  329.0000      0.0545
  330.0000      0.0536
  331.0000      0.0529
  332.0000      0.0527
  333.0000      0.0514
  334.0000      0.0510
  335.0000      0.0503
  336.0000      0.0499
  337.0000      0.0490
  338.0000      0.0482
  339.0000      0.0477
  340.0000      0.0477
  341.0000      0.0467
  342.0000      0.0456
  343.0000      0.0456
  344.0000      0.0450
  345.0000      0.0444
  346.0000      0.0434
  347.0000      0.0428
  348.0000      0.0425
  349.0000      0.0418
  350.0000      0.0412
  351.0000      0.0405
  352.0000      0.0400
  353.0000      0.0394
  354.0000      0.0390
  355.0000      0.0383
  356.0000      0.0384
  357.0000      0.0365
  358.0000      0.0364
  359.0000      0.0363
  360.0000      0.0361
  361.0000      0.0354
  362.0000      0.0334
  363.0000      0.0344
  364.0000      0.0347
  365.0000      0.0331
  366.0000      0.0335
  367.0000      0.0333
  368.0000      0.0320
  369.0000      0.0321
  370.0000      0.0311
  371.0000      0.0312
  372.0000      0.0305
  373.0000      0.0301
  374.0000      0.0308
  375.0000      0.0295
  376.0000      0.0290
  377.0000      0.0291
  378.0000      0.0297
  379.0000      0.0280
  380.0000      0.0277
  381.0000      0.0278
  382.0000      0.0279
  383.0000      0.0266
  384.0000      0.0265
  385.0000      0.0266
  386.0000      0.0268
  387.0000      0.0259
  388.0000      0.0255
  389.0000      0.0255
  390.0000      0.0253
  391.0000      0.0254
  392.0000      0.0239
  393.0000      0.0237
  394.0000      0.0241
  395.0000      0.0243
  396.0000      0.0230
  397.0000      0.0232
  398.0000      0.0234
  399.0000      0.0228
  400.0000      0.0219
  401.0000      0.0221
  402.0000      0.0221
  403.0000      0.0218
  404.0000      0.0212
  405.0000      0.0213
  406.0000      0.0211
  407.0000      0.0205
  408.0000      0.0206
  409.0000      0.0202
  410.0000      0.0198
  411.0000      0.0199
  412.0000      0.0199
  413.0000      0.0192
  414.0000      0.0189
  415.0000      0.0193
  416.0000      0.0187
  417.0000      0.0186
  418.0000      0.0184
  419.0000      0.0183
  420.0000      0.0182
  421.0000      0.0180
  422.0000      0.0177
  423.0000      0.0177
  424.0000      0.0174
  425.0000      0.0173
  426.0000      0.0171
  427.0000      0.0171
  428.0000      0.0171
  429.0000      0.0170
  430.0000      0.0169
  431.0000      0.0169
  432.0000      0.0167
  433.0000      0.0167
  434.0000      0.0166
  435.0000      0.0165
  436.0000      0.0163
  437.0000      0.0162
  438.0000      0.0161
  439.0000      0.0160
  440.0000      0.0158
  441.0000      0.0157
  442.0000      0.0156
  443.0000      0.0154
  444.0000      0.0153
  445.0000      0.0151
  446.0000      0.0150
  447.0000      0.0149
  448.0000      0.0148
  449.0000      0.0147
  450.0000      0.0146
  451.0000      0.0145
  452.0000      0.0142
  453.0000      0.0141
  454.0000      0.0140
  455.0000      0.0139
  456.0000      0.0138
  457.0000      0.0137
  458.0000      0.0136
  459.0000      0.0134
  460.0000      0.0133
  461.0000      0.0133
  462.0000      0.0132
  463.0000      0.0131
  464.0000      0.0130
  465.0000      0.0130
  466.0000      0.0129
  467.0000      0.0128
  468.0000      0.0127
  469.0000      0.0127
  470.0000      0.0126
  471.0000      0.0125
  472.0000      0.0124
  473.0000      0.0124
  474.0000      0.0123
  475.0000      0.0121
  476.0000      0.0121
  477.0000      0.0120
  478.0000      0.0119
  479.0000      0.0117
  480.0000      0.0117
  481.0000      0.0116
  482.0000      0.0115
  483.0000      0.0115
  484.0000      0.0114
  485.0000      0.0113
  486.0000      0.0113
  487.0000      0.0111
  488.0000      0.0110
  489.0000      0.0109
  490.0000      0.0108
  491.0000      0.0107
  492.0000      0.0106
  493.0000      0.0106
  494.0000      0.0106
  495.0000      0.0105
  496.0000      0.0104
  497.0000      0.0103
  498.0000      0.0103
  499.0000      0.0102
  500.0000      0.0101
  501.0000      0.0101
  502.0000      0.0101
  503.0000      0.0100
  504.0000      0.0100
  505.0000      0.0099
  506.0000      0.0099
  507.0000      0.0098
  508.0000      0.0097
  509.0000      0.0098
  510.0000      0.0097
  511.0000      0.0096
  512.0000      0.0096
  513.0000      0.0096
  514.0000      0.0096
  515.0000      0.0095
  516.0000      0.0095
  517.0000      0.0095
  518.0000      0.0094
  519.0000      0.0094
  520.0000      0.0095
  521.0000      0.0095
  522.0000      0.0095
  523.0000      0.0094
  524.0000      0.0094
  525.0000      0.0094
  526.0000      0.0094
  527.0000      0.0093
  528.0000      0.0093
  529.0000      0.0092
  530.0000      0.0091
  531.0000      0.0090
  532.0000      0.0090
  533.0000      0.0090
  534.0000      0.0090
  535.0000      0.0090
  536.0000      0.0090
  537.0000      0.0090
  538.0000      0.0089
  539.0000      0.0089
  540.0000      0.0090
  541.0000      0.0090
  542.0000      0.0090
  543.0000      0.0089
  544.0000      0.0089
  545.0000      0.0089
  546.0000      0.0088
  547.0000      0.0088
  548.0000      0.0088
  549.0000      0.0088
  550.0000      0.0087
  551.0000      0.0087
  552.0000      0.0087
  553.0000      0.0086
  554.0000      0.0085
  555.0000      0.0084
  556.0000      0.0084
  557.0000      0.0093
  558.0000      0.0094
  559.0000      0.0093
  560.0000      0.0092
  561.0000      0.0091
  562.0000      0.0091
  563.0000      0.0091
  564.0000      0.0091
  565.0000      0.0092
  566.0000      0.0093
  567.0000      0.0093
  568.0000      0.0093
  569.0000      0.0093
  570.0000      0.0092
  571.0000      0.0093
  572.0000      0.0093
  573.0000      0.0093
  574.0000      0.0093
  575.0000      0.0092
  576.0000      0.0092
  577.0000      0.0091
  578.0000      0.0091
  579.0000      0.0090
  580.0000      0.0090
  581.0000      0.0090
  582.0000      0.0089
  583.0000      0.0088
  584.0000      0.0088
  585.0000      0.0087
  586.0000      0.0086
  587.0000      0.0086
  588.0000      0.0086
  589.0000      0.0085
  590.0000      0.0085
  591.0000      0.0084
  592.0000      0.0084
  593.0000      0.0084
  594.0000      0.0084
  595.0000      0.0083
  596.0000      0.0083
  597.0000      0.0082
  598.0000      0.0082
  599.0000      0.0081
  600.0000      0.0081
  601.0000      0.0081
  602.0000      0.0080
  603.0000      0.0080
  604.0000      0.0078
  605.0000      0.0076
  606.0000      0.0075
  607.0000      0.0074
  608.0000      0.0072
  609.0000      0.0070
  610.0000      0.0069
  611.0000      0.0068
  612.0000      0.0067
  613.0000      0.0066
  614.0000      0.0067
  615.0000      0.0068
  616.0000      0.0068
  617.0000      0.0068
  618.0000      0.0068
  619.0000      0.0069
  620.0000      0.0068
  621.0000      0.0068
  622.0000      0.0067
  623.0000      0.0067
  624.0000      0.0067
  625.0000      0.0066
  626.0000      0.0066
  627.0000      0.0065
  628.0000      0.0065
  629.0000      0.0064
  630.0000      0.0064
  631.0000      0.0064
  632.0000      0.0064
  633.0000      0.0063
  634.0000      0.0063
  635.0000      0.0063
  636.0000      0.0063
  637.0000      0.0063
  638.0000      0.0062
  639.0000      0.0062
  640.0000      0.0062
  641.0000      0.0062
  642.0000      0.0062
  643.0000      0.0062
  644.0000      0.0062
  645.0000      0.0062
  646.0000      0.0062
  647.0000      0.0062
  648.0000      0.0063
  649.0000      0.0063
  650.0000      0.0063
  651.0000      0.0063
  652.0000      0.0063
  653.0000      0.0063
  654.0000      0.0063
  655.0000      0.0063
  656.0000      0.0063
  657.0000      0.0063
  658.0000      0.0064
  659.0000      0.0063
  660.0000      0.0063
  661.0000      0.0064
  662.0000      0.0064
  663.0000      0.0064
  664.0000      0.0065
  665.0000      0.0065
  666.0000      0.0066
  667.0000      0.0066
  668.0000      0.0067
  669.0000      0.0067
  670.0000      0.0067
  671.0000      0.0068
  672.0000      0.0067
  673.0000      0.0068
  674.0000      0.0068
  675.0000      0.0069
  676.0000      0.0069
  677.0000      0.0070
  678.0000      0.0070
  679.0000      0.0070
  680.0000      0.0070
  681.0000      0.0071
  682.0000      0.0071
  683.0000      0.0070
  684.0000      0.0070
  685.0000      0.0070
  686.0000      0.0069
  687.0000      0.0068
  688.0000      0.0067
  689.0000      0.0066
  690.0000      0.0065
  691.0000      0.0064
  692.0000      0.0063
  693.0000      0.0062
  694.0000      0.0061
  695.0000      0.0060
  696.0000      0.0059
  697.0000      0.0059
  698.0000      0.0058
  699.0000      0.0058
  700.0000      0.0058
  701.0000      0.0058
  702.0000      0.0058
  703.0000      0.0057
  704.0000      0.0057
  705.0000      0.0057
  706.0000      0.0057
  707.0000      0.0056
  708.0000      0.0057
  709.0000      0.0056
  710.0000      0.0056
  711.0000      0.0056
  712.0000      0.0056
  713.0000      0.0056
  714.0000      0.0056
  715.0000      0.0055
  716.0000      0.0054
  717.0000      0.0055
  718.0000      0.0054
  719.0000      0.0054
  720.0000      0.0053
  721.0000      0.0053
  722.0000      0.0052
  723.0000      0.0052
  724.0000      0.0052
  725.0000      0.0051
  726.0000      0.0051
  727.0000      0.0051
  728.0000      0.0051
  729.0000      0.0050
  730.0000      0.0049
  731.0000      0.0048
  732.0000      0.0048
  733.0000      0.0048
  734.0000      0.0047
  735.0000      0.0047
  736.0000      0.0045
  737.0000      0.0045
  738.0000      0.0045
  739.0000      0.0046
  740.0000      0.0046
  741.0000      0.0046
  742.0000      0.0047
  743.0000      0.0047
  744.0000      0.0047
  745.0000      0.0048
  746.0000      0.0048
  747.0000      0.0048
  748.0000      0.0048
  749.0000      0.0049
  750.0000      0.0049
  751.0000      0.0049
  752.0000      0.0049
  753.0000      0.0049
  754.0000      0.0049
  755.0000      0.0049
  756.0000      0.0049
  757.0000      0.0048
  758.0000      0.0048
  759.0000      0.0048
  760.0000      0.0048
  761.0000      0.0048
  762.0000      0.0048
  763.0000      0.0048
  764.0000      0.0047
  765.0000      0.0046
  766.0000      0.0045
  767.0000      0.0045
  768.0000      0.0044
  769.0000      0.0044
  770.0000      0.0043
  771.0000      0.0043
  772.0000      0.0044
  773.0000      0.0045
  774.0000      0.0044
  775.0000      0.0045
  776.0000      0.0045
  777.0000      0.0044
  778.0000      0.0045
  779.0000      0.0045
  780.0000      0.0045
  781.0000      0.0046
  782.0000      0.0045
  783.0000      0.0045
  784.0000      0.0045
  785.0000      0.0045
  786.0000      0.0046
  787.0000      0.0045
  788.0000      0.0045
  789.0000      0.0045
  790.0000      0.0046
  791.0000      0.0046
  792.0000      0.0046
  793.0000      0.0046
  794.0000      0.0046
  795.0000      0.0046
  796.0000      0.0046
  797.0000      0.0046
  798.0000      0.0046
  799.0000      0.0046
  800.0000      0.0045
