Start Wavelength:    200.0000
End Wavelength:    800.0000
Read Mode:  ABS
Read Average:      0.1000
Nanometer Interval:      1.0000
Time:      0.0000

  200.0000      2.5129
  201.0000      2.4893
  202.0000      2.3389
  203.0000      2.2436
  204.0000      2.2633
  205.0000      2.0545
  206.0000      1.7979
  207.0000      1.5998
  208.0000      1.3630
  209.0000      1.1439
  210.0000      0.9609
  211.0000      0.8112
  212.0000      0.6856
  213.0000      0.5731
  214.0000      0.4906
  215.0000      0.4243
  216.0000      0.3711
  217.0000      0.3266
  218.0000      0.2947
  219.0000      0.2699
  220.0000      0.2498
  221.0000      0.2336
  222.0000      0.2220
  223.0000      0.2120
  224.0000      0.2038
  225.0000      0.1967
  226.0000      0.1917
  227.0000      0.1867
  228.0000      0.1822
  229.0000      0.1778
  230.0000      0.1742
  231.0000      0.1709
  232.0000      0.1678
  233.0000      0.1642
  234.0000      0.1611
  235.0000      0.1585
  236.0000      0.1558
  237.0000      0.1532
  238.0000      0.1506
  239.0000      0.1479
  240.0000      0.1457
  241.0000      0.1438
  242.0000      0.1423
  243.0000      0.1406
  244.0000      0.1387
  245.0000      0.1372
  246.0000      0.1359
  247.0000      0.1345
  248.0000      0.1327
  249.0000      0.1316
  250.0000      0.1305
  251.0000      0.1296
  252.0000      0.1278
  253.0000      0.1269
  254.0000      0.1259
  255.0000      0.1251
  256.0000      0.1236
  257.0000      0.1222
  258.0000      0.1210
  259.0000      0.1203
  260.0000      0.1193
  261.0000      0.1181
  262.0000      0.1162
  263.0000      0.1150
  264.0000      0.1143
  265.0000      0.1128
  266.0000      0.1113
  267.0000      0.1098
  268.0000      0.1087
  269.0000      0.1076
  270.0000      0.1056
  271.0000      0.1044
  272.0000      0.1034
  273.0000      0.1022
  274.0000      0.1006
  275.0000      0.0994
  276.0000      0.0974
  277.0000      0.0964
  278.0000      0.0950
  279.0000      0.0937
  280.0000      0.0921
  281.0000      0.0903
  282.0000      0.0889
  283.0000      0.0878
  284.0000      0.0858
  285.0000      0.0846
  286.0000      0.0829
  287.0000      0.0819
  288.0000      0.0808
  289.0000      0.0792
  290.0000      0.0779
  291.0000      0.0764
  292.0000      0.0752
  293.0000      0.0744
  294.0000      0.0717
  295.0000      0.0707
  296.0000      0.0696
  297.0000      0.0689
  298.0000      0.0671
  299.0000      0.0657
  300.0000      0.0652
  301.0000      0.0641
  302.0000      0.0627
  303.0000      0.0611
  304.0000      0.0606
  305.0000      0.0602
  306.0000      0.0589
  307.0000      0.0577
  308.0000      0.0575
  309.0000      0.0567
  310.0000      0.0555
  311.0000      0.0544
  312.0000      0.0531
  313.0000      0.0531
  314.0000      0.0523
  315.0000      0.0514
  316.0000      0.0505
  317.0000      0.0501
  318.0000      0.0490
  319.0000      0.0482
  320.0000      0.0476
  321.0000      0.0472
  322.0000      0.0464
  323.0000      0.0451
  324.0000      0.0455
  325.0000      0.0443
  326.0000      0.0433
  327.0000      0.0426
  328.0000      0.0422
  329.0000      0.0418
  330.0000      0.0412
  331.0000      0.0400
  332.0000      0.0399
  333.0000      0.0388
  334.0000      0.0387
  335.0000      0.0380
  336.0000      0.0376
  337.0000      0.0371
  338.0000      0.0365
  339.0000      0.0360
  340.0000      0.0357
  341.0000      0.0351
  342.0000      0.0343
  343.0000      0.0342
  344.0000      0.0336
  345.0000      0.0329
  346.0000      0.0324
  347.0000      0.0318
  348.0000      0.0321
  349.0000      0.0313
  350.0000      0.0307
  351.0000      0.0305
  352.0000      0.0300
  353.0000      0.0293
  354.0000      0.0288
  355.0000      0.0285
  356.0000      0.0286
  357.0000      0.0278
  358.0000      0.0292
  359.0000      0.0282
  360.0000      0.0278
  361.0000      0.0269
  362.0000      0.0267
  363.0000      0.0274
  364.0000      0.0267
  365.0000      0.0261
  366.0000      0.0253
  367.0000      0.0265
  368.0000      0.0250
  369.0000      0.0245
  370.0000      0.0239
  371.0000      0.0250
  372.0000      0.0243
  373.0000      0.0229
  374.0000      0.0236
  375.0000      0.0235
  376.0000      0.0228
  377.0000      0.0226
  378.0000      0.0224
  379.0000      0.0209
  380.0000      0.0215
  381.0000      0.0218
  382.0000      0.0214
  383.0000      0.0198
  384.0000      0.0209
  385.0000      0.0206
  386.0000      0.0204
  387.0000      0.0192
  388.0000      0.0193
  389.0000      0.0195
  390.0000      0.0194
  391.0000      0.0195
  392.0000      0.0180
  393.0000      0.0182
  394.0000      0.0186
  395.0000      0.0179
  396.0000      0.0171
  397.0000      0.0177
  398.0000      0.0176
  399.0000      0.0173
  400.0000      0.0160
  401.0000      0.0164
  402.0000      0.0164
  403.0000      0.0160
  404.0000      0.0155
  405.0000      0.0158
  406.0000      0.0155
  407.0000      0.0152
  408.0000      0.0151
  409.0000      0.0148
  410.0000      0.0149
  411.0000      0.0147
  412.0000      0.0147
  413.0000      0.0140
  414.0000      0.0137
  415.0000      0.0140
  416.0000      0.0140
  417.0000      0.0138
  418.0000      0.0137
  419.0000      0.0137
  420.0000      0.0137
  421.0000      0.0134
  422.0000      0.0134
  423.0000      0.0133
  424.0000      0.0130
  425.0000      0.0129
  426.0000      0.0127
  427.0000      0.0127
  428.0000      0.0126
  429.0000      0.0124
  430.0000      0.0123
  431.0000      0.0123
  432.0000      0.0121
  433.0000      0.0121
  434.0000      0.0119
  435.0000      0.0120
  436.0000      0.0118
  437.0000      0.0117
  438.0000      0.0116
  439.0000      0.0115
  440.0000      0.0114
  441.0000      0.0113
  442.0000      0.0111
  443.0000      0.0111
  444.0000      0.0109
  445.0000      0.0109
  446.0000      0.0108
  447.0000      0.0107
  448.0000      0.0106
  449.0000      0.0106
  450.0000      0.0106
  451.0000      0.0105
  452.0000      0.0104
  453.0000      0.0104
  454.0000      0.0105
  455.0000      0.0106
  456.0000      0.0105
  457.0000      0.0106
  458.0000      0.0107
  459.0000      0.0107
  460.0000      0.0107
  461.0000      0.0107
  462.0000      0.0108
  463.0000      0.0108
  464.0000      0.0108
  465.0000      0.0109
  466.0000      0.0109
  467.0000      0.0108
  468.0000      0.0108
  469.0000      0.0108
  470.0000      0.0107
  471.0000      0.0106
  472.0000      0.0106
  473.0000      0.0105
  474.0000      0.0105
  475.0000      0.0104
  476.0000      0.0103
  477.0000      0.0102
  478.0000      0.0101
  479.0000      0.0100
  480.0000      0.0099
  481.0000      0.0098
  482.0000      0.0097
  483.0000      0.0096
  484.0000      0.0095
  485.0000      0.0094
  486.0000      0.0094
  487.0000      0.0094
  488.0000      0.0094
  489.0000      0.0093
  490.0000      0.0093
  491.0000      0.0093
  492.0000      0.0092
  493.0000      0.0092
  494.0000      0.0091
  495.0000      0.0090
  496.0000      0.0090
  497.0000      0.0089
  498.0000      0.0089
  499.0000      0.0089
  500.0000      0.0089
  501.0000      0.0089
  502.0000      0.0090
  503.0000      0.0089
  504.0000      0.0089
  505.0000      0.0088
  506.0000      0.0088
  507.0000      0.0088
  508.0000      0.0087
  509.0000      0.0087
  510.0000      0.0086
  511.0000      0.0086
  512.0000      0.0086
  513.0000      0.0086
  514.0000      0.0085
  515.0000      0.0084
  516.0000      0.0083
  517.0000      0.0083
  518.0000      0.0082
  519.0000      0.0081
  520.0000      0.0081
  521.0000      0.0080
  522.0000      0.0080
  523.0000      0.0080
  524.0000      0.0080
  525.0000      0.0080
  526.0000      0.0080
  527.0000      0.0081
  528.0000      0.0081
  529.0000      0.0081
  530.0000      0.0081
  531.0000      0.0081
  532.0000      0.0081
  533.0000      0.0081
  534.0000      0.0081
  535.0000      0.0080
  536.0000      0.0079
  537.0000      0.0078
  538.0000      0.0077
  539.0000      0.0077
  540.0000      0.0076
  541.0000      0.0076
  542.0000      0.0076
  543.0000      0.0076
  544.0000      0.0076
  545.0000      0.0076
  546.0000      0.0076
  547.0000      0.0075
  548.0000      0.0074
  549.0000      0.0074
  550.0000      0.0073
  551.0000      0.0073
  552.0000      0.0072
  553.0000      0.0071
  554.0000      0.0070
  555.0000      0.0069
  556.0000      0.0069
  557.0000      0.0070
  558.0000      0.0070
  559.0000      0.0069
  560.0000      0.0068
  561.0000      0.0067
  562.0000      0.0066
  563.0000      0.0066
  564.0000      0.0065
  565.0000      0.0065
  566.0000      0.0064
  567.0000      0.0063
  568.0000      0.0063
  569.0000      0.0062
  570.0000      0.0062
  571.0000      0.0061
  572.0000      0.0061
  573.0000      0.0060
  574.0000      0.0059
  575.0000      0.0059
  576.0000      0.0058
  577.0000      0.0057
  578.0000      0.0057
  579.0000      0.0056
  580.0000      0.0056
  581.0000      0.0056
  582.0000      0.0055
  583.0000      0.0055
  584.0000      0.0055
  585.0000      0.0056
  586.0000      0.0055
  587.0000      0.0054
  588.0000      0.0054
  589.0000      0.0053
  590.0000      0.0052
  591.0000      0.0052
  592.0000      0.0051
  593.0000      0.0051
  594.0000      0.0051
  595.0000      0.0050
  596.0000      0.0049
  597.0000      0.0048
  598.0000      0.0048
  599.0000      0.0047
  600.0000      0.0047
  601.0000      0.0047
  602.0000      0.0047
  603.0000      0.0047
  604.0000      0.0046
  605.0000      0.0046
  606.0000      0.0046
  607.0000      0.0046
  608.0000      0.0046
  609.0000      0.0046
  610.0000      0.0046
  611.0000      0.0046
  612.0000      0.0046
  613.0000      0.0047
  614.0000      0.0047
  615.0000      0.0047
  616.0000      0.0048
  617.0000      0.0047
  618.0000      0.0048
  619.0000      0.0048
  620.0000      0.0048
  621.0000      0.0047
  622.0000      0.0047
  623.0000      0.0047
  624.0000      0.0047
  625.0000      0.0047
  626.0000      0.0047
  627.0000      0.0047
  628.0000      0.0046
  629.0000      0.0046
  630.0000      0.0046
  631.0000      0.0045
  632.0000      0.0044
  633.0000      0.0044
  634.0000      0.0044
  635.0000      0.0044
  636.0000      0.0043
  637.0000      0.0043
  638.0000      0.0042
  639.0000      0.0042
  640.0000      0.0041
  641.0000      0.0041
  642.0000      0.0041
  643.0000      0.0041
  644.0000      0.0041
  645.0000      0.0041
  646.0000      0.0040
  647.0000      0.0040
  648.0000      0.0041
  649.0000      0.0041
  650.0000      0.0040
  651.0000      0.0040
  652.0000      0.0040
  653.0000      0.0040
  654.0000      0.0041
  655.0000      0.0042
  656.0000      0.0042
  657.0000      0.0042
  658.0000      0.0043
  659.0000      0.0043
  660.0000      0.0043
  661.0000      0.0042
  662.0000      0.0043
  663.0000      0.0042
  664.0000      0.0043
  665.0000      0.0043
  666.0000      0.0044
  667.0000      0.0045
  668.0000      0.0045
  669.0000      0.0046
  670.0000      0.0047
  671.0000      0.0047
  672.0000      0.0047
  673.0000      0.0048
  674.0000      0.0047
  675.0000      0.0048
  676.0000      0.0048
  677.0000      0.0047
  678.0000      0.0047
  679.0000      0.0047
  680.0000      0.0047
  681.0000      0.0047
  682.0000      0.0047
  683.0000      0.0047
  684.0000      0.0047
  685.0000      0.0047
  686.0000      0.0047
  687.0000      0.0047
  688.0000      0.0047
  689.0000      0.0047
  690.0000      0.0047
  691.0000      0.0047
  692.0000      0.0046
  693.0000      0.0045
  694.0000      0.0045
  695.0000      0.0045
  696.0000      0.0044
  697.0000      0.0044
  698.0000      0.0043
  699.0000      0.0043
  700.0000      0.0043
  701.0000      0.0043
  702.0000      0.0042
  703.0000      0.0042
  704.0000      0.0041
  705.0000      0.0041
  706.0000      0.0040
  707.0000      0.0040
  708.0000      0.0040
  709.0000      0.0040
  710.0000      0.0040
  711.0000      0.0040
  712.0000      0.0040
  713.0000      0.0040
  714.0000      0.0039
  715.0000      0.0039
  716.0000      0.0039
  717.0000      0.0038
  718.0000      0.0039
  719.0000      0.0039
  720.0000      0.0039
  721.0000      0.0039
  722.0000      0.0038
  723.0000      0.0039
  724.0000      0.0039
  725.0000      0.0039
  726.0000      0.0038
  727.0000      0.0038
  728.0000      0.0038
  729.0000      0.0037
  730.0000      0.0038
  731.0000      0.0037
  732.0000      0.0037
  733.0000      0.0036
  734.0000      0.0036
  735.0000      0.0036
  736.0000      0.0035
  737.0000      0.0035
  738.0000      0.0034
  739.0000      0.0034
  740.0000      0.0034
  741.0000      0.0033
  742.0000      0.0032
  743.0000      0.0032
  744.0000      0.0031
  745.0000      0.0031
  746.0000      0.0031
  747.0000      0.0032
  748.0000      0.0031
  749.0000      0.0032
  750.0000      0.0032
  751.0000      0.0032
  752.0000      0.0032
  753.0000      0.0033
  754.0000      0.0032
  755.0000      0.0033
  756.0000      0.0034
  757.0000      0.0034
  758.0000      0.0034
  759.0000      0.0034
  760.0000      0.0035
  761.0000      0.0035
  762.0000      0.0035
  763.0000      0.0036
  764.0000      0.0036
  765.0000      0.0036
  766.0000      0.0035
  767.0000      0.0035
  768.0000      0.0035
  769.0000      0.0035
  770.0000      0.0035
  771.0000      0.0035
  772.0000      0.0036
  773.0000      0.0037
  774.0000      0.0037
  775.0000      0.0037
  776.0000      0.0038
  777.0000      0.0038
  778.0000      0.0039
  779.0000      0.0039
  780.0000      0.0040
  781.0000      0.0041
  782.0000      0.0040
  783.0000      0.0041
  784.0000      0.0041
  785.0000      0.0041
  786.0000      0.0042
  787.0000      0.0042
  788.0000      0.0042
  789.0000      0.0041
  790.0000      0.0041
  791.0000      0.0041
  792.0000      0.0040
  793.0000      0.0038
  794.0000      0.0037
  795.0000      0.0037
  796.0000      0.0037
  797.0000      0.0036
  798.0000      0.0036
  799.0000      0.0036
  800.0000      0.0035
