Start Wavelength:    200.0000
End Wavelength:    800.0000
Read Mode:  ABS
Read Average:      0.1000
Nanometer Interval:      1.0000
Time:      0.0000

  200.0000      2.3532
  201.0000      2.3846
  202.0000      2.2683
  203.0000      2.2251
  204.0000      2.0203
  205.0000      1.7333
  206.0000      1.5602
  207.0000      1.3773
  208.0000      1.2151
  209.0000      1.0498
  210.0000      0.9275
  211.0000      0.8249
  212.0000      0.7384
  213.0000      0.6580
  214.0000      0.5975
  215.0000      0.5482
  216.0000      0.5081
  217.0000      0.4726
  218.0000      0.4459
  219.0000      0.4233
  220.0000      0.4049
  221.0000      0.3887
  222.0000      0.3756
  223.0000      0.3640
  224.0000      0.3537
  225.0000      0.3445
  226.0000      0.3369
  227.0000      0.3293
  228.0000      0.3231
  229.0000      0.3159
  230.0000      0.3096
  231.0000      0.3042
  232.0000      0.2989
  233.0000      0.2932
  234.0000      0.2881
  235.0000      0.2837
  236.0000      0.2791
  237.0000      0.2748
  238.0000      0.2710
  239.0000      0.2665
  240.0000      0.2629
  241.0000      0.2592
  242.0000      0.2557
  243.0000      0.2531
  244.0000      0.2498
  245.0000      0.2465
  246.0000      0.2441
  247.0000      0.2418
  248.0000      0.2393
  249.0000      0.2367
  250.0000      0.2345
  251.0000      0.2328
  252.0000      0.2306
  253.0000      0.2293
  254.0000      0.2274
  255.0000      0.2253
  256.0000      0.2231
  257.0000      0.2213
  258.0000      0.2198
  259.0000      0.2186
  260.0000      0.2171
  261.0000      0.2153
  262.0000      0.2134
  263.0000      0.2117
  264.0000      0.2093
  265.0000      0.2073
  266.0000      0.2049
  267.0000      0.2031
  268.0000      0.2013
  269.0000      0.1987
  270.0000      0.1955
  271.0000      0.1940
  272.0000      0.1921
  273.0000      0.1897
  274.0000      0.1876
  275.0000      0.1848
  276.0000      0.1826
  277.0000      0.1805
  278.0000      0.1778
  279.0000      0.1754
  280.0000      0.1732
  281.0000      0.1709
  282.0000      0.1685
  283.0000      0.1669
  284.0000      0.1637
  285.0000      0.1617
  286.0000      0.1592
  287.0000      0.1572
  288.0000      0.1551
  289.0000      0.1528
  290.0000      0.1499
  291.0000      0.1478
  292.0000      0.1456
  293.0000      0.1436
  294.0000      0.1406
  295.0000      0.1380
  296.0000      0.1366
  297.0000      0.1346
  298.0000      0.1326
  299.0000      0.1307
  300.0000      0.1287
  301.0000      0.1276
  302.0000      0.1259
  303.0000      0.1236
  304.0000      0.1215
  305.0000      0.1206
  306.0000      0.1188
  307.0000      0.1171
  308.0000      0.1165
  309.0000      0.1143
  310.0000      0.1127
  311.0000      0.1112
  312.0000      0.1103
  313.0000      0.1090
  314.0000      0.1072
  315.0000      0.1061
  316.0000      0.1046
  317.0000      0.1032
  318.0000      0.1026
  319.0000      0.1002
  320.0000      0.0991
  321.0000      0.0990
  322.0000      0.0945
  323.0000      0.0933
  324.0000      0.0929
  325.0000      0.0915
  326.0000      0.0894
  327.0000      0.0887
  328.0000      0.0881
  329.0000      0.0867
  330.0000      0.0851
  331.0000      0.0837
  332.0000      0.0834
  333.0000      0.0819
  334.0000      0.0808
  335.0000      0.0796
  336.0000      0.0789
  337.0000      0.0780
  338.0000      0.0771
  339.0000      0.0758
  340.0000      0.0752
  341.0000      0.0743
  342.0000      0.0734
  343.0000      0.0728
  344.0000      0.0715
  345.0000      0.0705
  346.0000      0.0699
  347.0000      0.0689
  348.0000      0.0685
  349.0000      0.0672
  350.0000      0.0662
  351.0000      0.0656
  352.0000      0.0649
  353.0000      0.0638
  354.0000      0.0631
  355.0000      0.0625
  356.0000      0.0622
  357.0000      0.0604
  358.0000      0.0605
  359.0000      0.0599
  360.0000      0.0603
  361.0000      0.0577
  362.0000      0.0566
  363.0000      0.0567
  364.0000      0.0564
  365.0000      0.0554
  366.0000      0.0542
  367.0000      0.0536
  368.0000      0.0530
  369.0000      0.0524
  370.0000      0.0515
  371.0000      0.0520
  372.0000      0.0504
  373.0000      0.0496
  374.0000      0.0500
  375.0000      0.0494
  376.0000      0.0477
  377.0000      0.0475
  378.0000      0.0479
  379.0000      0.0466
  380.0000      0.0462
  381.0000      0.0450
  382.0000      0.0462
  383.0000      0.0437
  384.0000      0.0444
  385.0000      0.0432
  386.0000      0.0425
  387.0000      0.0424
  388.0000      0.0415
  389.0000      0.0416
  390.0000      0.0409
  391.0000      0.0409
  392.0000      0.0402
  393.0000      0.0396
  394.0000      0.0394
  395.0000      0.0385
  396.0000      0.0381
  397.0000      0.0380
  398.0000      0.0378
  399.0000      0.0368
  400.0000      0.0363
  401.0000      0.0363
  402.0000      0.0363
  403.0000      0.0353
  404.0000      0.0349
  405.0000      0.0351
  406.0000      0.0346
  407.0000      0.0335
  408.0000      0.0334
  409.0000      0.0332
  410.0000      0.0328
  411.0000      0.0327
  412.0000      0.0321
  413.0000      0.0315
  414.0000      0.0310
  415.0000      0.0310
  416.0000      0.0310
  417.0000      0.0308
  418.0000      0.0304
  419.0000      0.0301
  420.0000      0.0298
  421.0000      0.0294
  422.0000      0.0291
  423.0000      0.0288
  424.0000      0.0285
  425.0000      0.0282
  426.0000      0.0279
  427.0000      0.0278
  428.0000      0.0275
  429.0000      0.0273
  430.0000      0.0270
  431.0000      0.0270
  432.0000      0.0267
  433.0000      0.0264
  434.0000      0.0261
  435.0000      0.0260
  436.0000      0.0258
  437.0000      0.0256
  438.0000      0.0254
  439.0000      0.0251
  440.0000      0.0250
  441.0000      0.0247
  442.0000      0.0244
  443.0000      0.0241
  444.0000      0.0239
  445.0000      0.0237
  446.0000      0.0236
  447.0000      0.0233
  448.0000      0.0231
  449.0000      0.0229
  450.0000      0.0228
  451.0000      0.0226
  452.0000      0.0225
  453.0000      0.0224
  454.0000      0.0223
  455.0000      0.0222
  456.0000      0.0221
  457.0000      0.0219
  458.0000      0.0218
  459.0000      0.0216
  460.0000      0.0214
  461.0000      0.0213
  462.0000      0.0211
  463.0000      0.0209
  464.0000      0.0207
  465.0000      0.0206
  466.0000      0.0205
  467.0000      0.0203
  468.0000      0.0202
  469.0000      0.0201
  470.0000      0.0199
  471.0000      0.0199
  472.0000      0.0197
  473.0000      0.0195
  474.0000      0.0193
  475.0000      0.0191
  476.0000      0.0189
  477.0000      0.0188
  478.0000      0.0187
  479.0000      0.0186
  480.0000      0.0185
  481.0000      0.0184
  482.0000      0.0183
  483.0000      0.0182
  484.0000      0.0181
  485.0000      0.0180
  486.0000      0.0178
  487.0000      0.0176
  488.0000      0.0174
  489.0000      0.0173
  490.0000      0.0170
  491.0000      0.0169
  492.0000      0.0167
  493.0000      0.0166
  494.0000      0.0164
  495.0000      0.0163
  496.0000      0.0162
  497.0000      0.0161
  498.0000      0.0161
  499.0000      0.0160
  500.0000      0.0159
  501.0000      0.0158
  502.0000      0.0158
  503.0000      0.0158
  504.0000      0.0157
  505.0000      0.0157
  506.0000      0.0157
  507.0000      0.0157
  508.0000      0.0156
  509.0000      0.0157
  510.0000      0.0156
  511.0000      0.0155
  512.0000      0.0154
  513.0000      0.0154
  514.0000      0.0154
  515.0000      0.0154
  516.0000      0.0154
  517.0000      0.0154
  518.0000      0.0153
  519.0000      0.0152
  520.0000      0.0152
  521.0000      0.0152
  522.0000      0.0151
  523.0000      0.0150
  524.0000      0.0150
  525.0000      0.0149
  526.0000      0.0149
  527.0000      0.0148
  528.0000      0.0147
  529.0000      0.0146
  530.0000      0.0144
  531.0000      0.0143
  532.0000      0.0143
  533.0000      0.0143
  534.0000      0.0143
  535.0000      0.0142
  536.0000      0.0142
  537.0000      0.0140
  538.0000      0.0139
  539.0000      0.0137
  540.0000      0.0136
  541.0000      0.0136
  542.0000      0.0135
  543.0000      0.0134
  544.0000      0.0133
  545.0000      0.0133
  546.0000      0.0132
  547.0000      0.0131
  548.0000      0.0131
  549.0000      0.0131
  550.0000      0.0130
  551.0000      0.0130
  552.0000      0.0129
  553.0000      0.0127
  554.0000      0.0126
  555.0000      0.0126
  556.0000      0.0127
  557.0000      0.0135
  558.0000      0.0133
  559.0000      0.0132
  560.0000      0.0131
  561.0000      0.0130
  562.0000      0.0130
  563.0000      0.0129
  564.0000      0.0127
  565.0000      0.0126
  566.0000      0.0125
  567.0000      0.0123
  568.0000      0.0122
  569.0000      0.0120
  570.0000      0.0119
  571.0000      0.0118
  572.0000      0.0118
  573.0000      0.0118
  574.0000      0.0118
  575.0000      0.0118
  576.0000      0.0118
  577.0000      0.0118
  578.0000      0.0118
  579.0000      0.0118
  580.0000      0.0118
  581.0000      0.0118
  582.0000      0.0118
  583.0000      0.0118
  584.0000      0.0117
  585.0000      0.0117
  586.0000      0.0118
  587.0000      0.0118
  588.0000      0.0118
  589.0000      0.0119
  590.0000      0.0118
  591.0000      0.0118
  592.0000      0.0118
  593.0000      0.0118
  594.0000      0.0116
  595.0000      0.0115
  596.0000      0.0115
  597.0000      0.0115
  598.0000      0.0114
  599.0000      0.0113
  600.0000      0.0113
  601.0000      0.0111
  602.0000      0.0110
  603.0000      0.0109
  604.0000      0.0108
  605.0000      0.0107
  606.0000      0.0105
  607.0000      0.0104
  608.0000      0.0102
  609.0000      0.0101
  610.0000      0.0101
  611.0000      0.0101
  612.0000      0.0100
  613.0000      0.0101
  614.0000      0.0100
  615.0000      0.0099
  616.0000      0.0099
  617.0000      0.0099
  618.0000      0.0099
  619.0000      0.0099
  620.0000      0.0099
  621.0000      0.0099
  622.0000      0.0099
  623.0000      0.0099
  624.0000      0.0100
  625.0000      0.0100
  626.0000      0.0100
  627.0000      0.0099
  628.0000      0.0100
  629.0000      0.0099
  630.0000      0.0099
  631.0000      0.0099
  632.0000      0.0098
  633.0000      0.0098
  634.0000      0.0097
  635.0000      0.0097
  636.0000      0.0097
  637.0000      0.0096
  638.0000      0.0096
  639.0000      0.0095
  640.0000      0.0095
  641.0000      0.0095
  642.0000      0.0094
  643.0000      0.0095
  644.0000      0.0094
  645.0000      0.0094
  646.0000      0.0092
  647.0000      0.0090
  648.0000      0.0090
  649.0000      0.0089
  650.0000      0.0088
  651.0000      0.0088
  652.0000      0.0087
  653.0000      0.0087
  654.0000      0.0087
  655.0000      0.0086
  656.0000      0.0086
  657.0000      0.0085
  658.0000      0.0085
  659.0000      0.0084
  660.0000      0.0085
  661.0000      0.0085
  662.0000      0.0086
  663.0000      0.0086
  664.0000      0.0086
  665.0000      0.0086
  666.0000      0.0086
  667.0000      0.0086
  668.0000      0.0087
  669.0000      0.0088
  670.0000      0.0089
  671.0000      0.0089
  672.0000      0.0090
  673.0000      0.0091
  674.0000      0.0091
  675.0000      0.0092
  676.0000      0.0092
  677.0000      0.0091
  678.0000      0.0091
  679.0000      0.0090
  680.0000      0.0090
  681.0000      0.0090
  682.0000      0.0091
  683.0000      0.0090
  684.0000      0.0091
  685.0000      0.0091
  686.0000      0.0091
  687.0000      0.0090
  688.0000      0.0090
  689.0000      0.0089
  690.0000      0.0088
  691.0000      0.0087
  692.0000      0.0086
  693.0000      0.0086
  694.0000      0.0086
  695.0000      0.0086
  696.0000      0.0086
  697.0000      0.0086
  698.0000      0.0085
  699.0000      0.0085
  700.0000      0.0084
  701.0000      0.0083
  702.0000      0.0082
  703.0000      0.0081
  704.0000      0.0080
  705.0000      0.0080
  706.0000      0.0079
  707.0000      0.0079
  708.0000      0.0079
  709.0000      0.0079
  710.0000      0.0079
  711.0000      0.0079
  712.0000      0.0078
  713.0000      0.0077
  714.0000      0.0077
  715.0000      0.0076
  716.0000      0.0076
  717.0000      0.0075
  718.0000      0.0075
  719.0000      0.0074
  720.0000      0.0073
  721.0000      0.0073
  722.0000      0.0073
  723.0000      0.0073
  724.0000      0.0073
  725.0000      0.0073
  726.0000      0.0073
  727.0000      0.0073
  728.0000      0.0074
  729.0000      0.0073
  730.0000      0.0073
  731.0000      0.0074
  732.0000      0.0075
  733.0000      0.0075
  734.0000      0.0076
  735.0000      0.0077
  736.0000      0.0070
  737.0000      0.0070
  738.0000      0.0070
  739.0000      0.0070
  740.0000      0.0051
  741.0000      0.0069
  742.0000      0.0069
  743.0000      0.0068
  744.0000      0.0067
  745.0000      0.0067
  746.0000      0.0067
  747.0000      0.0068
  748.0000      0.0067
  749.0000      0.0068
  750.0000      0.0068
  751.0000      0.0068
  752.0000      0.0068
  753.0000      0.0068
  754.0000      0.0068
  755.0000      0.0069
  756.0000      0.0069
  757.0000      0.0068
  758.0000      0.0069
  759.0000      0.0069
  760.0000      0.0069
  761.0000      0.0069
  762.0000      0.0069
  763.0000      0.0068
  764.0000      0.0068
  765.0000      0.0067
  766.0000      0.0065
  767.0000      0.0064
  768.0000      0.0063
  769.0000      0.0062
  770.0000      0.0061
  771.0000      0.0061
  772.0000      0.0061
  773.0000      0.0062
  774.0000      0.0062
  775.0000      0.0062
  776.0000      0.0062
  777.0000      0.0062
  778.0000      0.0062
  779.0000      0.0063
  780.0000      0.0063
  781.0000      0.0064
  782.0000      0.0063
  783.0000      0.0063
  784.0000      0.0062
  785.0000      0.0062
  786.0000      0.0062
  787.0000      0.0062
  788.0000      0.0061
  789.0000      0.0061
  790.0000      0.0061
  791.0000      0.0061
  792.0000      0.0061
  793.0000      0.0060
  794.0000      0.0060
  795.0000      0.0059
  796.0000      0.0059
  797.0000      0.0059
  798.0000      0.0058
  799.0000      0.0059
  800.0000      0.0058
