Start Wavelength:    200.0000
End Wavelength:    800.0000
Read Mode:  ABS
Read Average:      0.1000
Nanometer Interval:      1.0000
Time:      0.0000

  200.0000      2.6221
  201.0000      2.2085
  202.0000      2.0379
  203.0000      1.8571
  204.0000      1.5982
  205.0000      1.4323
  206.0000      1.2998
  207.0000      1.1628
  208.0000      1.0576
  209.0000      0.9613
  210.0000      0.8767
  211.0000      0.8117
  212.0000      0.7504
  213.0000      0.6993
  214.0000      0.6579
  215.0000      0.6222
  216.0000      0.5931
  217.0000      0.5675
  218.0000      0.5469
  219.0000      0.5292
  220.0000      0.5134
  221.0000      0.4997
  222.0000      0.4884
  223.0000      0.4762
  224.0000      0.4658
  225.0000      0.4573
  226.0000      0.4498
  227.0000      0.4404
  228.0000      0.4334
  229.0000      0.4255
  230.0000      0.4176
  231.0000      0.4110
  232.0000      0.4051
  233.0000      0.3979
  234.0000      0.3919
  235.0000      0.3859
  236.0000      0.3800
  237.0000      0.3745
  238.0000      0.3699
  239.0000      0.3629
  240.0000      0.3588
  241.0000      0.3540
  242.0000      0.3496
  243.0000      0.3454
  244.0000      0.3409
  245.0000      0.3371
  246.0000      0.3332
  247.0000      0.3301
  248.0000      0.3271
  249.0000      0.3236
  250.0000      0.3208
  251.0000      0.3174
  252.0000      0.3145
  253.0000      0.3125
  254.0000      0.3099
  255.0000      0.3070
  256.0000      0.3043
  257.0000      0.3018
  258.0000      0.2989
  259.0000      0.2960
  260.0000      0.2938
  261.0000      0.2912
  262.0000      0.2887
  263.0000      0.2856
  264.0000      0.2830
  265.0000      0.2806
  266.0000      0.2768
  267.0000      0.2744
  268.0000      0.2717
  269.0000      0.2684
  270.0000      0.2646
  271.0000      0.2625
  272.0000      0.2595
  273.0000      0.2572
  274.0000      0.2537
  275.0000      0.2503
  276.0000      0.2478
  277.0000      0.2451
  278.0000      0.2414
  279.0000      0.2384
  280.0000      0.2361
  281.0000      0.2325
  282.0000      0.2290
  283.0000      0.2269
  284.0000      0.2237
  285.0000      0.2199
  286.0000      0.2169
  287.0000      0.2140
  288.0000      0.2108
  289.0000      0.2081
  290.0000      0.2043
  291.0000      0.2011
  292.0000      0.1984
  293.0000      0.1959
  294.0000      0.1916
  295.0000      0.1891
  296.0000      0.1867
  297.0000      0.1837
  298.0000      0.1808
  299.0000      0.1790
  300.0000      0.1766
  301.0000      0.1735
  302.0000      0.1713
  303.0000      0.1686
  304.0000      0.1666
  305.0000      0.1641
  306.0000      0.1616
  307.0000      0.1593
  308.0000      0.1575
  309.0000      0.1554
  310.0000      0.1527
  311.0000      0.1502
  312.0000      0.1483
  313.0000      0.1469
  314.0000      0.1442
  315.0000      0.1427
  316.0000      0.1401
  317.0000      0.1384
  318.0000      0.1366
  319.0000      0.1350
  320.0000      0.1328
  321.0000      0.1320
  322.0000      0.1278
  323.0000      0.1258
  324.0000      0.1249
  325.0000      0.1230
  326.0000      0.1203
  327.0000      0.1189
  328.0000      0.1177
  329.0000      0.1161
  330.0000      0.1139
  331.0000      0.1120
  332.0000      0.1113
  333.0000      0.1096
  334.0000      0.1076
  335.0000      0.1061
  336.0000      0.1053
  337.0000      0.1036
  338.0000      0.1016
  339.0000      0.1007
  340.0000      0.0995
  341.0000      0.0979
  342.0000      0.0963
  343.0000      0.0952
  344.0000      0.0937
  345.0000      0.0922
  346.0000      0.0908
  347.0000      0.0894
  348.0000      0.0887
  349.0000      0.0874
  350.0000      0.0859
  351.0000      0.0847
  352.0000      0.0837
  353.0000      0.0820
  354.0000      0.0810
  355.0000      0.0803
  356.0000      0.0798
  357.0000      0.0784
  358.0000      0.0788
  359.0000      0.0764
  360.0000      0.0757
  361.0000      0.0742
  362.0000      0.0733
  363.0000      0.0724
  364.0000      0.0713
  365.0000      0.0693
  366.0000      0.0700
  367.0000      0.0698
  368.0000      0.0669
  369.0000      0.0662
  370.0000      0.0656
  371.0000      0.0659
  372.0000      0.0630
  373.0000      0.0624
  374.0000      0.0635
  375.0000      0.0615
  376.0000      0.0592
  377.0000      0.0591
  378.0000      0.0590
  379.0000      0.0575
  380.0000      0.0569
  381.0000      0.0562
  382.0000      0.0558
  383.0000      0.0537
  384.0000      0.0543
  385.0000      0.0535
  386.0000      0.0532
  387.0000      0.0508
  388.0000      0.0511
  389.0000      0.0500
  390.0000      0.0493
  391.0000      0.0494
  392.0000      0.0484
  393.0000      0.0472
  394.0000      0.0472
  395.0000      0.0470
  396.0000      0.0454
  397.0000      0.0456
  398.0000      0.0448
  399.0000      0.0440
  400.0000      0.0433
  401.0000      0.0429
  402.0000      0.0425
  403.0000      0.0416
  404.0000      0.0413
  405.0000      0.0412
  406.0000      0.0405
  407.0000      0.0395
  408.0000      0.0392
  409.0000      0.0389
  410.0000      0.0385
  411.0000      0.0380
  412.0000      0.0374
  413.0000      0.0367
  414.0000      0.0362
  415.0000      0.0365
  416.0000      0.0357
  417.0000      0.0352
  418.0000      0.0349
  419.0000      0.0345
  420.0000      0.0342
  421.0000      0.0338
  422.0000      0.0335
  423.0000      0.0331
  424.0000      0.0328
  425.0000      0.0326
  426.0000      0.0321
  427.0000      0.0318
  428.0000      0.0316
  429.0000      0.0314
  430.0000      0.0310
  431.0000      0.0309
  432.0000      0.0306
  433.0000      0.0303
  434.0000      0.0299
  435.0000      0.0298
  436.0000      0.0295
  437.0000      0.0291
  438.0000      0.0288
  439.0000      0.0285
  440.0000      0.0282
  441.0000      0.0278
  442.0000      0.0274
  443.0000      0.0273
  444.0000      0.0270
  445.0000      0.0266
  446.0000      0.0263
  447.0000      0.0262
  448.0000      0.0258
  449.0000      0.0255
  450.0000      0.0253
  451.0000      0.0252
  452.0000      0.0247
  453.0000      0.0245
  454.0000      0.0242
  455.0000      0.0240
  456.0000      0.0237
  457.0000      0.0233
  458.0000      0.0232
  459.0000      0.0229
  460.0000      0.0227
  461.0000      0.0224
  462.0000      0.0222
  463.0000      0.0219
  464.0000      0.0217
  465.0000      0.0215
  466.0000      0.0213
  467.0000      0.0212
  468.0000      0.0209
  469.0000      0.0206
  470.0000      0.0204
  471.0000      0.0201
  472.0000      0.0199
  473.0000      0.0197
  474.0000      0.0194
  475.0000      0.0192
  476.0000      0.0190
  477.0000      0.0188
  478.0000      0.0186
  479.0000      0.0184
  480.0000      0.0183
  481.0000      0.0181
  482.0000      0.0179
  483.0000      0.0177
  484.0000      0.0176
  485.0000      0.0174
  486.0000      0.0173
  487.0000      0.0172
  488.0000      0.0170
  489.0000      0.0169
  490.0000      0.0168
  491.0000      0.0166
  492.0000      0.0165
  493.0000      0.0164
  494.0000      0.0162
  495.0000      0.0161
  496.0000      0.0160
  497.0000      0.0158
  498.0000      0.0157
  499.0000      0.0156
  500.0000      0.0155
  501.0000      0.0153
  502.0000      0.0152
  503.0000      0.0150
  504.0000      0.0149
  505.0000      0.0147
  506.0000      0.0146
  507.0000      0.0144
  508.0000      0.0143
  509.0000      0.0142
  510.0000      0.0140
  511.0000      0.0139
  512.0000      0.0138
  513.0000      0.0138
  514.0000      0.0137
  515.0000      0.0135
  516.0000      0.0134
  517.0000      0.0133
  518.0000      0.0132
  519.0000      0.0131
  520.0000      0.0131
  521.0000      0.0130
  522.0000      0.0129
  523.0000      0.0128
  524.0000      0.0127
  525.0000      0.0126
  526.0000      0.0125
  527.0000      0.0124
  528.0000      0.0124
  529.0000      0.0123
  530.0000      0.0123
  531.0000      0.0122
  532.0000      0.0121
  533.0000      0.0120
  534.0000      0.0119
  535.0000      0.0119
  536.0000      0.0118
  537.0000      0.0118
  538.0000      0.0117
  539.0000      0.0116
  540.0000      0.0115
  541.0000      0.0115
  542.0000      0.0114
  543.0000      0.0113
  544.0000      0.0111
  545.0000      0.0111
  546.0000      0.0110
  547.0000      0.0109
  548.0000      0.0108
  549.0000      0.0107
  550.0000      0.0107
  551.0000      0.0106
  552.0000      0.0106
  553.0000      0.0104
  554.0000      0.0103
  555.0000      0.0102
  556.0000      0.0101
  557.0000      0.0108
  558.0000      0.0108
  559.0000      0.0107
  560.0000      0.0105
  561.0000      0.0104
  562.0000      0.0104
  563.0000      0.0103
  564.0000      0.0101
  565.0000      0.0101
  566.0000      0.0100
  567.0000      0.0099
  568.0000      0.0099
  569.0000      0.0099
  570.0000      0.0098
  571.0000      0.0098
  572.0000      0.0098
  573.0000      0.0097
  574.0000      0.0097
  575.0000      0.0096
  576.0000      0.0095
  577.0000      0.0094
  578.0000      0.0093
  579.0000      0.0092
  580.0000      0.0090
  581.0000      0.0089
  582.0000      0.0088
  583.0000      0.0087
  584.0000      0.0087
  585.0000      0.0087
  586.0000      0.0086
  587.0000      0.0086
  588.0000      0.0085
  589.0000      0.0086
  590.0000      0.0086
  591.0000      0.0085
  592.0000      0.0085
  593.0000      0.0085
  594.0000      0.0084
  595.0000      0.0083
  596.0000      0.0083
  597.0000      0.0083
  598.0000      0.0082
  599.0000      0.0082
  600.0000      0.0082
  601.0000      0.0082
  602.0000      0.0081
  603.0000      0.0082
  604.0000      0.0081
  605.0000      0.0081
  606.0000      0.0081
  607.0000      0.0080
  608.0000      0.0080
  609.0000      0.0080
  610.0000      0.0080
  611.0000      0.0079
  612.0000      0.0078
  613.0000      0.0077
  614.0000      0.0077
  615.0000      0.0076
  616.0000      0.0076
  617.0000      0.0075
  618.0000      0.0075
  619.0000      0.0075
  620.0000      0.0075
  621.0000      0.0074
  622.0000      0.0073
  623.0000      0.0073
  624.0000      0.0073
  625.0000      0.0072
  626.0000      0.0072
  627.0000      0.0072
  628.0000      0.0071
  629.0000      0.0071
  630.0000      0.0071
  631.0000      0.0071
  632.0000      0.0070
  633.0000      0.0070
  634.0000      0.0070
  635.0000      0.0069
  636.0000      0.0070
  637.0000      0.0069
  638.0000      0.0069
  639.0000      0.0069
  640.0000      0.0068
  641.0000      0.0068
  642.0000      0.0067
  643.0000      0.0067
  644.0000      0.0066
  645.0000      0.0066
  646.0000      0.0065
  647.0000      0.0065
  648.0000      0.0064
  649.0000      0.0064
  650.0000      0.0064
  651.0000      0.0064
  652.0000      0.0064
  653.0000      0.0063
  654.0000      0.0063
  655.0000      0.0063
  656.0000      0.0062
  657.0000      0.0062
  658.0000      0.0062
  659.0000      0.0061
  660.0000      0.0061
  661.0000      0.0061
  662.0000      0.0061
  663.0000      0.0061
  664.0000      0.0060
  665.0000      0.0060
  666.0000      0.0060
  667.0000      0.0060
  668.0000      0.0060
  669.0000      0.0060
  670.0000      0.0060
  671.0000      0.0060
  672.0000      0.0059
  673.0000      0.0060
  674.0000      0.0059
  675.0000      0.0059
  676.0000      0.0059
  677.0000      0.0059
  678.0000      0.0059
  679.0000      0.0059
  680.0000      0.0058
  681.0000      0.0058
  682.0000      0.0058
  683.0000      0.0057
  684.0000      0.0057
  685.0000      0.0057
  686.0000      0.0057
  687.0000      0.0056
  688.0000      0.0056
  689.0000      0.0055
  690.0000      0.0054
  691.0000      0.0054
  692.0000      0.0053
  693.0000      0.0052
  694.0000      0.0052
  695.0000      0.0052
  696.0000      0.0051
  697.0000      0.0051
  698.0000      0.0050
  699.0000      0.0050
  700.0000      0.0050
  701.0000      0.0050
  702.0000      0.0050
  703.0000      0.0049
  704.0000      0.0049
  705.0000      0.0048
  706.0000      0.0048
  707.0000      0.0048
  708.0000      0.0047
  709.0000      0.0047
  710.0000      0.0047
  711.0000      0.0046
  712.0000      0.0046
  713.0000      0.0046
  714.0000      0.0046
  715.0000      0.0045
  716.0000      0.0045
  717.0000      0.0044
  718.0000      0.0044
  719.0000      0.0043
  720.0000      0.0042
  721.0000      0.0042
  722.0000      0.0042
  723.0000      0.0042
  724.0000      0.0042
  725.0000      0.0042
  726.0000      0.0041
  727.0000      0.0041
  728.0000      0.0042
  729.0000      0.0042
  730.0000      0.0042
  731.0000      0.0042
  732.0000      0.0042
  733.0000      0.0041
  734.0000      0.0041
  735.0000      0.0041
  736.0000      0.0040
  737.0000      0.0040
  738.0000      0.0039
  739.0000      0.0039
  740.0000      0.0039
  741.0000      0.0039
  742.0000      0.0038
  743.0000      0.0039
  744.0000      0.0038
  745.0000      0.0038
  746.0000      0.0038
  747.0000      0.0038
  748.0000      0.0037
  749.0000      0.0037
  750.0000      0.0037
  751.0000      0.0036
  752.0000      0.0036
  753.0000      0.0036
  754.0000      0.0035
  755.0000      0.0036
  756.0000      0.0035
  757.0000      0.0035
  758.0000      0.0035
  759.0000      0.0035
  760.0000      0.0035
  761.0000      0.0035
  762.0000      0.0035
  763.0000      0.0035
  764.0000      0.0035
  765.0000      0.0035
  766.0000      0.0034
  767.0000      0.0035
  768.0000      0.0034
  769.0000      0.0034
  770.0000      0.0033
  771.0000      0.0033
  772.0000      0.0032
  773.0000      0.0033
  774.0000      0.0032
  775.0000      0.0032
  776.0000      0.0032
  777.0000      0.0032
  778.0000      0.0032
  779.0000      0.0032
  780.0000      0.0031
  781.0000      0.0032
  782.0000      0.0031
  783.0000      0.0031
  784.0000      0.0031
  785.0000      0.0031
  786.0000      0.0031
  787.0000      0.0031
  788.0000      0.0030
  789.0000      0.0031
  790.0000      0.0031
  791.0000      0.0031
  792.0000      0.0031
  793.0000      0.0030
  794.0000      0.0030
  795.0000      0.0030
  796.0000      0.0030
  797.0000      0.0030
  798.0000      0.0030
  799.0000      0.0030
  800.0000      0.0029
