Start Wavelength:    200.0000
End Wavelength:    800.0000
Read Mode:  ABS
Read Average:      0.1000
Nanometer Interval:      1.0000
Time:      0.0000

  200.0000      2.4672
  201.0000      2.8317
  202.0000      2.3653
  203.0000      2.4292
  204.0000      2.3213
  205.0000      2.0246
  206.0000      1.8371
  207.0000      1.6194
  208.0000      1.4051
  209.0000      1.1888
  210.0000      1.0198
  211.0000      0.8748
  212.0000      0.7586
  213.0000      0.6499
  214.0000      0.5692
  215.0000      0.5045
  216.0000      0.4516
  217.0000      0.4071
  218.0000      0.3745
  219.0000      0.3480
  220.0000      0.3267
  221.0000      0.3087
  222.0000      0.2954
  223.0000      0.2835
  224.0000      0.2734
  225.0000      0.2643
  226.0000      0.2580
  227.0000      0.2512
  228.0000      0.2455
  229.0000      0.2397
  230.0000      0.2347
  231.0000      0.2304
  232.0000      0.2258
  233.0000      0.2218
  234.0000      0.2180
  235.0000      0.2146
  236.0000      0.2108
  237.0000      0.2075
  238.0000      0.2049
  239.0000      0.2014
  240.0000      0.1986
  241.0000      0.1959
  242.0000      0.1933
  243.0000      0.1910
  244.0000      0.1883
  245.0000      0.1858
  246.0000      0.1842
  247.0000      0.1824
  248.0000      0.1806
  249.0000      0.1790
  250.0000      0.1772
  251.0000      0.1759
  252.0000      0.1744
  253.0000      0.1733
  254.0000      0.1715
  255.0000      0.1702
  256.0000      0.1688
  257.0000      0.1670
  258.0000      0.1656
  259.0000      0.1638
  260.0000      0.1625
  261.0000      0.1610
  262.0000      0.1592
  263.0000      0.1576
  264.0000      0.1561
  265.0000      0.1550
  266.0000      0.1538
  267.0000      0.1525
  268.0000      0.1509
  269.0000      0.1485
  270.0000      0.1465
  271.0000      0.1453
  272.0000      0.1435
  273.0000      0.1422
  274.0000      0.1397
  275.0000      0.1379
  276.0000      0.1365
  277.0000      0.1343
  278.0000      0.1326
  279.0000      0.1303
  280.0000      0.1292
  281.0000      0.1276
  282.0000      0.1253
  283.0000      0.1242
  284.0000      0.1215
  285.0000      0.1203
  286.0000      0.1187
  287.0000      0.1167
  288.0000      0.1144
  289.0000      0.1132
  290.0000      0.1114
  291.0000      0.1099
  292.0000      0.1079
  293.0000      0.1062
  294.0000      0.1038
  295.0000      0.1020
  296.0000      0.1008
  297.0000      0.0994
  298.0000      0.0976
  299.0000      0.0963
  300.0000      0.0953
  301.0000      0.0940
  302.0000      0.0924
  303.0000      0.0907
  304.0000      0.0896
  305.0000      0.0888
  306.0000      0.0874
  307.0000      0.0857
  308.0000      0.0845
  309.0000      0.0837
  310.0000      0.0822
  311.0000      0.0811
  312.0000      0.0793
  313.0000      0.0785
  314.0000      0.0777
  315.0000      0.0766
  316.0000      0.0757
  317.0000      0.0744
  318.0000      0.0736
  319.0000      0.0724
  320.0000      0.0721
  321.0000      0.0716
  322.0000      0.0700
  323.0000      0.0693
  324.0000      0.0689
  325.0000      0.0680
  326.0000      0.0663
  327.0000      0.0657
  328.0000      0.0655
  329.0000      0.0646
  330.0000      0.0635
  331.0000      0.0624
  332.0000      0.0620
  333.0000      0.0606
  334.0000      0.0602
  335.0000      0.0593
  336.0000      0.0587
  337.0000      0.0583
  338.0000      0.0577
  339.0000      0.0570
  340.0000      0.0565
  341.0000      0.0556
  342.0000      0.0550
  343.0000      0.0545
  344.0000      0.0536
  345.0000      0.0528
  346.0000      0.0519
  347.0000      0.0513
  348.0000      0.0512
  349.0000      0.0507
  350.0000      0.0495
  351.0000      0.0495
  352.0000      0.0489
  353.0000      0.0482
  354.0000      0.0476
  355.0000      0.0471
  356.0000      0.0469
  357.0000      0.0440
  358.0000      0.0453
  359.0000      0.0441
  360.0000      0.0435
  361.0000      0.0425
  362.0000      0.0425
  363.0000      0.0423
  364.0000      0.0418
  365.0000      0.0404
  366.0000      0.0408
  367.0000      0.0400
  368.0000      0.0387
  369.0000      0.0386
  370.0000      0.0376
  371.0000      0.0385
  372.0000      0.0382
  373.0000      0.0363
  374.0000      0.0370
  375.0000      0.0365
  376.0000      0.0359
  377.0000      0.0353
  378.0000      0.0361
  379.0000      0.0340
  380.0000      0.0345
  381.0000      0.0339
  382.0000      0.0346
  383.0000      0.0325
  384.0000      0.0325
  385.0000      0.0326
  386.0000      0.0326
  387.0000      0.0316
  388.0000      0.0315
  389.0000      0.0312
  390.0000      0.0309
  391.0000      0.0309
  392.0000      0.0298
  393.0000      0.0294
  394.0000      0.0298
  395.0000      0.0290
  396.0000      0.0285
  397.0000      0.0279
  398.0000      0.0284
  399.0000      0.0279
  400.0000      0.0271
  401.0000      0.0270
  402.0000      0.0267
  403.0000      0.0262
  404.0000      0.0261
  405.0000      0.0265
  406.0000      0.0253
  407.0000      0.0249
  408.0000      0.0250
  409.0000      0.0252
  410.0000      0.0246
  411.0000      0.0245
  412.0000      0.0246
  413.0000      0.0242
  414.0000      0.0238
  415.0000      0.0239
  416.0000      0.0236
  417.0000      0.0235
  418.0000      0.0231
  419.0000      0.0229
  420.0000      0.0227
  421.0000      0.0224
  422.0000      0.0222
  423.0000      0.0221
  424.0000      0.0218
  425.0000      0.0216
  426.0000      0.0215
  427.0000      0.0214
  428.0000      0.0212
  429.0000      0.0211
  430.0000      0.0209
  431.0000      0.0207
  432.0000      0.0205
  433.0000      0.0202
  434.0000      0.0200
  435.0000      0.0200
  436.0000      0.0197
  437.0000      0.0196
  438.0000      0.0195
  439.0000      0.0193
  440.0000      0.0191
  441.0000      0.0189
  442.0000      0.0187
  443.0000      0.0185
  444.0000      0.0184
  445.0000      0.0182
  446.0000      0.0182
  447.0000      0.0181
  448.0000      0.0178
  449.0000      0.0177
  450.0000      0.0176
  451.0000      0.0174
  452.0000      0.0172
  453.0000      0.0170
  454.0000      0.0169
  455.0000      0.0167
  456.0000      0.0166
  457.0000      0.0164
  458.0000      0.0163
  459.0000      0.0162
  460.0000      0.0161
  461.0000      0.0160
  462.0000      0.0159
  463.0000      0.0158
  464.0000      0.0157
  465.0000      0.0155
  466.0000      0.0155
  467.0000      0.0153
  468.0000      0.0152
  469.0000      0.0150
  470.0000      0.0148
  471.0000      0.0147
  472.0000      0.0147
  473.0000      0.0147
  474.0000      0.0146
  475.0000      0.0145
  476.0000      0.0145
  477.0000      0.0144
  478.0000      0.0143
  479.0000      0.0142
  480.0000      0.0142
  481.0000      0.0141
  482.0000      0.0140
  483.0000      0.0139
  484.0000      0.0139
  485.0000      0.0138
  486.0000      0.0137
  487.0000      0.0136
  488.0000      0.0135
  489.0000      0.0134
  490.0000      0.0133
  491.0000      0.0132
  492.0000      0.0131
  493.0000      0.0130
  494.0000      0.0130
  495.0000      0.0128
  496.0000      0.0127
  497.0000      0.0126
  498.0000      0.0125
  499.0000      0.0125
  500.0000      0.0125
  501.0000      0.0124
  502.0000      0.0124
  503.0000      0.0123
  504.0000      0.0123
  505.0000      0.0122
  506.0000      0.0123
  507.0000      0.0123
  508.0000      0.0122
  509.0000      0.0122
  510.0000      0.0122
  511.0000      0.0123
  512.0000      0.0123
  513.0000      0.0122
  514.0000      0.0122
  515.0000      0.0120
  516.0000      0.0119
  517.0000      0.0118
  518.0000      0.0117
  519.0000      0.0116
  520.0000      0.0115
  521.0000      0.0113
  522.0000      0.0112
  523.0000      0.0111
  524.0000      0.0111
  525.0000      0.0111
  526.0000      0.0111
  527.0000      0.0109
  528.0000      0.0108
  529.0000      0.0106
  530.0000      0.0105
  531.0000      0.0105
  532.0000      0.0105
  533.0000      0.0104
  534.0000      0.0103
  535.0000      0.0103
  536.0000      0.0102
  537.0000      0.0102
  538.0000      0.0101
  539.0000      0.0100
  540.0000      0.0100
  541.0000      0.0099
  542.0000      0.0098
  543.0000      0.0097
  544.0000      0.0097
  545.0000      0.0098
  546.0000      0.0099
  547.0000      0.0099
  548.0000      0.0099
  549.0000      0.0098
  550.0000      0.0098
  551.0000      0.0098
  552.0000      0.0098
  553.0000      0.0098
  554.0000      0.0099
  555.0000      0.0099
  556.0000      0.0100
  557.0000      0.0099
  558.0000      0.0098
  559.0000      0.0097
  560.0000      0.0096
  561.0000      0.0096
  562.0000      0.0095
  563.0000      0.0094
  564.0000      0.0092
  565.0000      0.0092
  566.0000      0.0091
  567.0000      0.0090
  568.0000      0.0090
  569.0000      0.0089
  570.0000      0.0088
  571.0000      0.0087
  572.0000      0.0087
  573.0000      0.0088
  574.0000      0.0088
  575.0000      0.0088
  576.0000      0.0088
  577.0000      0.0087
  578.0000      0.0088
  579.0000      0.0088
  580.0000      0.0088
  581.0000      0.0088
  582.0000      0.0087
  583.0000      0.0087
  584.0000      0.0087
  585.0000      0.0086
  586.0000      0.0085
  587.0000      0.0084
  588.0000      0.0084
  589.0000      0.0084
  590.0000      0.0083
  591.0000      0.0081
  592.0000      0.0080
  593.0000      0.0081
  594.0000      0.0079
  595.0000      0.0078
  596.0000      0.0078
  597.0000      0.0078
  598.0000      0.0078
  599.0000      0.0078
  600.0000      0.0079
  601.0000      0.0080
  602.0000      0.0081
  603.0000      0.0080
  604.0000      0.0079
  605.0000      0.0079
  606.0000      0.0079
  607.0000      0.0079
  608.0000      0.0079
  609.0000      0.0079
  610.0000      0.0079
  611.0000      0.0079
  612.0000      0.0079
  613.0000      0.0079
  614.0000      0.0080
  615.0000      0.0079
  616.0000      0.0079
  617.0000      0.0079
  618.0000      0.0080
  619.0000      0.0080
  620.0000      0.0079
  621.0000      0.0079
  622.0000      0.0079
  623.0000      0.0080
  624.0000      0.0081
  625.0000      0.0082
  626.0000      0.0083
  627.0000      0.0084
  628.0000      0.0084
  629.0000      0.0084
  630.0000      0.0083
  631.0000      0.0080
  632.0000      0.0080
  633.0000      0.0080
  634.0000      0.0079
  635.0000      0.0080
  636.0000      0.0079
  637.0000      0.0077
  638.0000      0.0076
  639.0000      0.0075
  640.0000      0.0073
  641.0000      0.0072
  642.0000      0.0070
  643.0000      0.0070
  644.0000      0.0070
  645.0000      0.0070
  646.0000      0.0069
  647.0000      0.0069
  648.0000      0.0069
  649.0000      0.0068
  650.0000      0.0068
  651.0000      0.0067
  652.0000      0.0067
  653.0000      0.0067
  654.0000      0.0067
  655.0000      0.0068
  656.0000      0.0068
  657.0000      0.0068
  658.0000      0.0069
  659.0000      0.0069
  660.0000      0.0069
  661.0000      0.0069
  662.0000      0.0069
  663.0000      0.0069
  664.0000      0.0069
  665.0000      0.0068
  666.0000      0.0068
  667.0000      0.0068
  668.0000      0.0068
  669.0000      0.0067
  670.0000      0.0067
  671.0000      0.0067
  672.0000      0.0067
  673.0000      0.0067
  674.0000      0.0067
  675.0000      0.0067
  676.0000      0.0067
  677.0000      0.0066
  678.0000      0.0066
  679.0000      0.0066
  680.0000      0.0066
  681.0000      0.0065
  682.0000      0.0065
  683.0000      0.0064
  684.0000      0.0064
  685.0000      0.0063
  686.0000      0.0062
  687.0000      0.0062
  688.0000      0.0061
  689.0000      0.0061
  690.0000      0.0061
  691.0000      0.0061
  692.0000      0.0061
  693.0000      0.0061
  694.0000      0.0061
  695.0000      0.0061
  696.0000      0.0061
  697.0000      0.0061
  698.0000      0.0061
  699.0000      0.0062
  700.0000      0.0062
  701.0000      0.0062
  702.0000      0.0062
  703.0000      0.0062
  704.0000      0.0062
  705.0000      0.0061
  706.0000      0.0060
  707.0000      0.0059
  708.0000      0.0059
  709.0000      0.0059
  710.0000      0.0059
  711.0000      0.0059
  712.0000      0.0058
  713.0000      0.0059
  714.0000      0.0058
  715.0000      0.0057
  716.0000      0.0057
  717.0000      0.0057
  718.0000      0.0057
  719.0000      0.0057
  720.0000      0.0057
  721.0000      0.0057
  722.0000      0.0057
  723.0000      0.0057
  724.0000      0.0057
  725.0000      0.0057
  726.0000      0.0057
  727.0000      0.0058
  728.0000      0.0057
  729.0000      0.0057
  730.0000      0.0056
  731.0000      0.0056
  732.0000      0.0056
  733.0000      0.0057
  734.0000      0.0059
  735.0000      0.0060
  736.0000      0.0058
  737.0000      0.0058
  738.0000      0.0058
  739.0000      0.0058
  740.0000      0.0059
  741.0000      0.0059
  742.0000      0.0059
  743.0000      0.0059
  744.0000      0.0060
  745.0000      0.0061
  746.0000      0.0062
  747.0000      0.0062
  748.0000      0.0062
  749.0000      0.0063
  750.0000      0.0063
  751.0000      0.0063
  752.0000      0.0063
  753.0000      0.0065
  754.0000      0.0065
  755.0000      0.0066
  756.0000      0.0065
  757.0000      0.0066
  758.0000      0.0066
  759.0000      0.0066
  760.0000      0.0066
  761.0000      0.0066
  762.0000      0.0066
  763.0000      0.0066
  764.0000      0.0065
  765.0000      0.0065
  766.0000      0.0063
  767.0000      0.0063
  768.0000      0.0062
  769.0000      0.0062
  770.0000      0.0061
  771.0000      0.0061
  772.0000      0.0060
  773.0000      0.0060
  774.0000      0.0059
  775.0000      0.0058
  776.0000      0.0057
  777.0000      0.0057
  778.0000      0.0057
  779.0000      0.0058
  780.0000      0.0057
  781.0000      0.0058
  782.0000      0.0058
  783.0000      0.0059
  784.0000      0.0060
  785.0000      0.0059
  786.0000      0.0060
  787.0000      0.0059
  788.0000      0.0059
  789.0000      0.0059
  790.0000      0.0060
  791.0000      0.0060
  792.0000      0.0059
  793.0000      0.0058
  794.0000      0.0058
  795.0000      0.0057
  796.0000      0.0056
  797.0000      0.0055
  798.0000      0.0055
  799.0000      0.0055
  800.0000      0.0053
