Start Wavelength:    200.0000
End Wavelength:    800.0000
Read Mode:  ABS
Read Average:      0.1000
Nanometer Interval:      1.0000
Time:      0.0000

  200.0000      2.2367
  201.0000      2.4168
  202.0000      2.2683
  203.0000      2.1429
  204.0000      1.9360
  205.0000      1.6866
  206.0000      1.4837
  207.0000      1.2893
  208.0000      1.1237
  209.0000      0.9619
  210.0000      0.8348
  211.0000      0.7290
  212.0000      0.6389
  213.0000      0.5600
  214.0000      0.5005
  215.0000      0.4520
  216.0000      0.4126
  217.0000      0.3785
  218.0000      0.3537
  219.0000      0.3330
  220.0000      0.3156
  221.0000      0.3014
  222.0000      0.2900
  223.0000      0.2798
  224.0000      0.2714
  225.0000      0.2631
  226.0000      0.2571
  227.0000      0.2512
  228.0000      0.2456
  229.0000      0.2399
  230.0000      0.2347
  231.0000      0.2305
  232.0000      0.2263
  233.0000      0.2218
  234.0000      0.2175
  235.0000      0.2140
  236.0000      0.2099
  237.0000      0.2066
  238.0000      0.2037
  239.0000      0.2001
  240.0000      0.1973
  241.0000      0.1946
  242.0000      0.1917
  243.0000      0.1898
  244.0000      0.1871
  245.0000      0.1845
  246.0000      0.1825
  247.0000      0.1809
  248.0000      0.1789
  249.0000      0.1768
  250.0000      0.1751
  251.0000      0.1737
  252.0000      0.1714
  253.0000      0.1703
  254.0000      0.1685
  255.0000      0.1676
  256.0000      0.1659
  257.0000      0.1640
  258.0000      0.1629
  259.0000      0.1611
  260.0000      0.1599
  261.0000      0.1580
  262.0000      0.1561
  263.0000      0.1545
  264.0000      0.1526
  265.0000      0.1514
  266.0000      0.1493
  267.0000      0.1473
  268.0000      0.1461
  269.0000      0.1439
  270.0000      0.1420
  271.0000      0.1408
  272.0000      0.1389
  273.0000      0.1369
  274.0000      0.1348
  275.0000      0.1330
  276.0000      0.1307
  277.0000      0.1288
  278.0000      0.1265
  279.0000      0.1246
  280.0000      0.1235
  281.0000      0.1216
  282.0000      0.1184
  283.0000      0.1168
  284.0000      0.1146
  285.0000      0.1130
  286.0000      0.1106
  287.0000      0.1090
  288.0000      0.1067
  289.0000      0.1054
  290.0000      0.1037
  291.0000      0.1011
  292.0000      0.0988
  293.0000      0.0980
  294.0000      0.0955
  295.0000      0.0935
  296.0000      0.0920
  297.0000      0.0897
  298.0000      0.0884
  299.0000      0.0872
  300.0000      0.0859
  301.0000      0.0842
  302.0000      0.0829
  303.0000      0.0811
  304.0000      0.0800
  305.0000      0.0790
  306.0000      0.0774
  307.0000      0.0760
  308.0000      0.0752
  309.0000      0.0743
  310.0000      0.0721
  311.0000      0.0710
  312.0000      0.0703
  313.0000      0.0691
  314.0000      0.0678
  315.0000      0.0663
  316.0000      0.0657
  317.0000      0.0648
  318.0000      0.0639
  319.0000      0.0624
  320.0000      0.0615
  321.0000      0.0617
  322.0000      0.0595
  323.0000      0.0589
  324.0000      0.0588
  325.0000      0.0575
  326.0000      0.0556
  327.0000      0.0555
  328.0000      0.0547
  329.0000      0.0539
  330.0000      0.0527
  331.0000      0.0512
  332.0000      0.0512
  333.0000      0.0506
  334.0000      0.0500
  335.0000      0.0487
  336.0000      0.0485
  337.0000      0.0476
  338.0000      0.0472
  339.0000      0.0462
  340.0000      0.0458
  341.0000      0.0450
  342.0000      0.0442
  343.0000      0.0437
  344.0000      0.0429
  345.0000      0.0421
  346.0000      0.0416
  347.0000      0.0407
  348.0000      0.0403
  349.0000      0.0397
  350.0000      0.0393
  351.0000      0.0388
  352.0000      0.0381
  353.0000      0.0372
  354.0000      0.0366
  355.0000      0.0365
  356.0000      0.0364
  357.0000      0.0370
  358.0000      0.0377
  359.0000      0.0348
  360.0000      0.0340
  361.0000      0.0346
  362.0000      0.0346
  363.0000      0.0334
  364.0000      0.0324
  365.0000      0.0314
  366.0000      0.0321
  367.0000      0.0326
  368.0000      0.0306
  369.0000      0.0303
  370.0000      0.0293
  371.0000      0.0297
  372.0000      0.0284
  373.0000      0.0271
  374.0000      0.0277
  375.0000      0.0280
  376.0000      0.0270
  377.0000      0.0255
  378.0000      0.0260
  379.0000      0.0252
  380.0000      0.0254
  381.0000      0.0250
  382.0000      0.0248
  383.0000      0.0236
  384.0000      0.0240
  385.0000      0.0235
  386.0000      0.0229
  387.0000      0.0224
  388.0000      0.0225
  389.0000      0.0221
  390.0000      0.0212
  391.0000      0.0214
  392.0000      0.0210
  393.0000      0.0204
  394.0000      0.0207
  395.0000      0.0197
  396.0000      0.0194
  397.0000      0.0197
  398.0000      0.0194
  399.0000      0.0188
  400.0000      0.0184
  401.0000      0.0184
  402.0000      0.0180
  403.0000      0.0175
  404.0000      0.0171
  405.0000      0.0176
  406.0000      0.0171
  407.0000      0.0164
  408.0000      0.0160
  409.0000      0.0164
  410.0000      0.0159
  411.0000      0.0159
  412.0000      0.0155
  413.0000      0.0153
  414.0000      0.0150
  415.0000      0.0151
  416.0000      0.0146
  417.0000      0.0144
  418.0000      0.0142
  419.0000      0.0139
  420.0000      0.0138
  421.0000      0.0137
  422.0000      0.0135
  423.0000      0.0132
  424.0000      0.0130
  425.0000      0.0129
  426.0000      0.0127
  427.0000      0.0126
  428.0000      0.0124
  429.0000      0.0123
  430.0000      0.0121
  431.0000      0.0121
  432.0000      0.0118
  433.0000      0.0118
  434.0000      0.0116
  435.0000      0.0115
  436.0000      0.0113
  437.0000      0.0111
  438.0000      0.0110
  439.0000      0.0109
  440.0000      0.0107
  441.0000      0.0105
  442.0000      0.0104
  443.0000      0.0103
  444.0000      0.0102
  445.0000      0.0100
  446.0000      0.0100
  447.0000      0.0099
  448.0000      0.0098
  449.0000      0.0097
  450.0000      0.0097
  451.0000      0.0097
  452.0000      0.0095
  453.0000      0.0094
  454.0000      0.0094
  455.0000      0.0094
  456.0000      0.0093
  457.0000      0.0092
  458.0000      0.0092
  459.0000      0.0091
  460.0000      0.0090
  461.0000      0.0090
  462.0000      0.0089
  463.0000      0.0088
  464.0000      0.0088
  465.0000      0.0088
  466.0000      0.0089
  467.0000      0.0088
  468.0000      0.0088
  469.0000      0.0088
  470.0000      0.0088
  471.0000      0.0087
  472.0000      0.0087
  473.0000      0.0087
  474.0000      0.0086
  475.0000      0.0086
  476.0000      0.0085
  477.0000      0.0085
  478.0000      0.0083
  479.0000      0.0082
  480.0000      0.0082
  481.0000      0.0082
  482.0000      0.0081
  483.0000      0.0080
  484.0000      0.0080
  485.0000      0.0079
  486.0000      0.0079
  487.0000      0.0078
  488.0000      0.0078
  489.0000      0.0077
  490.0000      0.0076
  491.0000      0.0075
  492.0000      0.0075
  493.0000      0.0075
  494.0000      0.0074
  495.0000      0.0073
  496.0000      0.0072
  497.0000      0.0070
  498.0000      0.0068
  499.0000      0.0066
  500.0000      0.0064
  501.0000      0.0062
  502.0000      0.0062
  503.0000      0.0061
  504.0000      0.0059
  505.0000      0.0059
  506.0000      0.0059
  507.0000      0.0058
  508.0000      0.0057
  509.0000      0.0057
  510.0000      0.0055
  511.0000      0.0054
  512.0000      0.0054
  513.0000      0.0054
  514.0000      0.0053
  515.0000      0.0052
  516.0000      0.0051
  517.0000      0.0049
  518.0000      0.0048
  519.0000      0.0047
  520.0000      0.0047
  521.0000      0.0046
  522.0000      0.0046
  523.0000      0.0045
  524.0000      0.0045
  525.0000      0.0044
  526.0000      0.0044
  527.0000      0.0043
  528.0000      0.0043
  529.0000      0.0042
  530.0000      0.0042
  531.0000      0.0041
  532.0000      0.0041
  533.0000      0.0041
  534.0000      0.0040
  535.0000      0.0040
  536.0000      0.0039
  537.0000      0.0039
  538.0000      0.0039
  539.0000      0.0039
  540.0000      0.0038
  541.0000      0.0038
  542.0000      0.0038
  543.0000      0.0037
  544.0000      0.0036
  545.0000      0.0036
  546.0000      0.0036
  547.0000      0.0035
  548.0000      0.0035
  549.0000      0.0035
  550.0000      0.0035
  551.0000      0.0034
  552.0000      0.0034
  553.0000      0.0033
  554.0000      0.0032
  555.0000      0.0032
  556.0000      0.0032
  557.0000      0.0045
  558.0000      0.0045
  559.0000      0.0045
  560.0000      0.0044
  561.0000      0.0043
  562.0000      0.0043
  563.0000      0.0042
  564.0000      0.0041
  565.0000      0.0041
  566.0000      0.0041
  567.0000      0.0040
  568.0000      0.0040
  569.0000      0.0039
  570.0000      0.0039
  571.0000      0.0039
  572.0000      0.0039
  573.0000      0.0039
  574.0000      0.0038
  575.0000      0.0038
  576.0000      0.0037
  577.0000      0.0036
  578.0000      0.0036
  579.0000      0.0035
  580.0000      0.0034
  581.0000      0.0034
  582.0000      0.0033
  583.0000      0.0033
  584.0000      0.0033
  585.0000      0.0033
  586.0000      0.0032
  587.0000      0.0032
  588.0000      0.0031
  589.0000      0.0032
  590.0000      0.0031
  591.0000      0.0032
  592.0000      0.0031
  593.0000      0.0032
  594.0000      0.0031
  595.0000      0.0031
  596.0000      0.0031
  597.0000      0.0031
  598.0000      0.0031
  599.0000      0.0030
  600.0000      0.0030
  601.0000      0.0030
  602.0000      0.0029
  603.0000      0.0029
  604.0000      0.0029
  605.0000      0.0029
  606.0000      0.0029
  607.0000      0.0030
  608.0000      0.0029
  609.0000      0.0030
  610.0000      0.0030
  611.0000      0.0029
  612.0000      0.0029
  613.0000      0.0029
  614.0000      0.0029
  615.0000      0.0029
  616.0000      0.0029
  617.0000      0.0029
  618.0000      0.0030
  619.0000      0.0030
  620.0000      0.0030
  621.0000      0.0029
  622.0000      0.0029
  623.0000      0.0030
  624.0000      0.0030
  625.0000      0.0030
  626.0000      0.0029
  627.0000      0.0029
  628.0000      0.0029
  629.0000      0.0029
  630.0000      0.0029
  631.0000      0.0029
  632.0000      0.0029
  633.0000      0.0029
  634.0000      0.0029
  635.0000      0.0029
  636.0000      0.0029
  637.0000      0.0029
  638.0000      0.0029
  639.0000      0.0029
  640.0000      0.0028
  641.0000      0.0028
  642.0000      0.0028
  643.0000      0.0028
  644.0000      0.0028
  645.0000      0.0029
  646.0000      0.0029
  647.0000      0.0028
  648.0000      0.0029
  649.0000      0.0029
  650.0000      0.0028
  651.0000      0.0028
  652.0000      0.0028
  653.0000      0.0028
  654.0000      0.0027
  655.0000      0.0027
  656.0000      0.0027
  657.0000      0.0027
  658.0000      0.0026
  659.0000      0.0027
  660.0000      0.0027
  661.0000      0.0027
  662.0000      0.0028
  663.0000      0.0028
  664.0000      0.0029
  665.0000      0.0029
  666.0000      0.0030
  667.0000      0.0031
  668.0000      0.0031
  669.0000      0.0031
  670.0000      0.0031
  671.0000      0.0031
  672.0000      0.0032
  673.0000      0.0032
  674.0000      0.0032
  675.0000      0.0032
  676.0000      0.0032
  677.0000      0.0032
  678.0000      0.0031
  679.0000      0.0031
  680.0000      0.0030
  681.0000      0.0028
  682.0000      0.0027
  683.0000      0.0026
  684.0000      0.0026
  685.0000      0.0026
  686.0000      0.0025
  687.0000      0.0025
  688.0000      0.0025
  689.0000      0.0024
  690.0000      0.0024
  691.0000      0.0024
  692.0000      0.0024
  693.0000      0.0024
  694.0000      0.0025
  695.0000      0.0025
  696.0000      0.0025
  697.0000      0.0025
  698.0000      0.0025
  699.0000      0.0025
  700.0000      0.0025
  701.0000      0.0025
  702.0000      0.0025
  703.0000      0.0025
  704.0000      0.0025
  705.0000      0.0026
  706.0000      0.0026
  707.0000      0.0026
  708.0000      0.0027
  709.0000      0.0027
  710.0000      0.0026
  711.0000      0.0026
  712.0000      0.0025
  713.0000      0.0025
  714.0000      0.0024
  715.0000      0.0024
  716.0000      0.0023
  717.0000      0.0022
  718.0000      0.0021
  719.0000      0.0021
  720.0000      0.0020
  721.0000      0.0021
  722.0000      0.0020
  723.0000      0.0020
  724.0000      0.0019
  725.0000      0.0018
  726.0000      0.0018
  727.0000      0.0017
  728.0000      0.0016
  729.0000      0.0015
  730.0000      0.0015
  731.0000      0.0014
  732.0000      0.0013
  733.0000      0.0012
  734.0000      0.0011
  735.0000      0.0011
  736.0000      0.0010
  737.0000      0.0010
  738.0000      0.0010
  739.0000      0.0010
  740.0000      0.0010
  741.0000      0.0010
  742.0000      0.0010
  743.0000      0.0010
  744.0000      0.0010
  745.0000      0.0011
  746.0000      0.0011
  747.0000      0.0012
  748.0000      0.0012
  749.0000      0.0013
  750.0000      0.0013
  751.0000      0.0014
  752.0000      0.0014
  753.0000      0.0014
  754.0000      0.0014
  755.0000      0.0014
  756.0000      0.0015
  757.0000      0.0014
  758.0000      0.0015
  759.0000      0.0015
  760.0000      0.0016
  761.0000      0.0016
  762.0000      0.0017
  763.0000      0.0017
  764.0000      0.0017
  765.0000      0.0016
  766.0000      0.0016
  767.0000      0.0016
  768.0000      0.0015
  769.0000      0.0015
  770.0000      0.0014
  771.0000      0.0013
  772.0000      0.0013
  773.0000      0.0013
  774.0000      0.0012
  775.0000      0.0012
  776.0000      0.0012
  777.0000      0.0011
  778.0000      0.0011
  779.0000      0.0012
  780.0000      0.0012
  781.0000      0.0012
  782.0000      0.0013
  783.0000      0.0014
  784.0000      0.0014
  785.0000      0.0015
  786.0000      0.0016
  787.0000      0.0016
  788.0000      0.0016
  789.0000      0.0017
  790.0000      0.0018
  791.0000      0.0018
  792.0000      0.0019
  793.0000      0.0019
  794.0000      0.0019
  795.0000      0.0019
  796.0000      0.0019
  797.0000      0.0018
  798.0000      0.0018
  799.0000      0.0018
  800.0000      0.0017
