Start Wavelength:    200.0000
End Wavelength:    800.0000
Read Mode:  ABS
Read Average:      0.1000
Nanometer Interval:      1.0000
Time:      0.0000

  200.0000     -0.0035
  201.0000     -0.0020
  202.0000     -0.0016
  203.0000     -0.0010
  204.0000     -0.0014
  205.0000     -0.0005
  206.0000     -0.0003
  207.0000     -0.0015
  208.0000     -0.0005
  209.0000     -0.0001
  210.0000     -0.0007
  211.0000     -0.0010
  212.0000     -0.0013
  213.0000     -0.0005
  214.0000     -0.0005
  215.0000     -0.0007
  216.0000     -0.0010
  217.0000     -0.0008
  218.0000     -0.0007
  219.0000     -0.0013
  220.0000     -0.0006
  221.0000     -0.0003
  222.0000     -0.0006
  223.0000     -0.0009
  224.0000     -0.0011
  225.0000     -0.0009
  226.0000     -0.0006
  227.0000     -0.0011
  228.0000     -0.0008
  229.0000     -0.0010
  230.0000     -0.0009
  231.0000     -0.0010
  232.0000     -0.0008
  233.0000     -0.0008
  234.0000     -0.0008
  235.0000     -0.0006
  236.0000     -0.0011
  237.0000     -0.0010
  238.0000     -0.0005
  239.0000     -0.0012
  240.0000     -0.0006
  241.0000     -0.0009
  242.0000     -0.0012
  243.0000     -0.0009
  244.0000     -0.0009
  245.0000     -0.0012
  246.0000     -0.0014
  247.0000     -0.0009
  248.0000     -0.0008
  249.0000     -0.0012
  250.0000     -0.0010
  251.0000     -0.0013
  252.0000     -0.0015
  253.0000     -0.0010
  254.0000     -0.0014
  255.0000     -0.0007
  256.0000     -0.0007
  257.0000     -0.0015
  258.0000     -0.0013
  259.0000     -0.0009
  260.0000     -0.0009
  261.0000     -0.0014
  262.0000     -0.0013
  263.0000     -0.0008
  264.0000     -0.0012
  265.0000     -0.0008
  266.0000     -0.0012
  267.0000     -0.0011
  268.0000     -0.0009
  269.0000     -0.0013
  270.0000     -0.0014
  271.0000     -0.0008
  272.0000     -0.0012
  273.0000     -0.0008
  274.0000     -0.0007
  275.0000     -0.0004
  276.0000     -0.0008
  277.0000     -0.0008
  278.0000     -0.0006
  279.0000     -0.0008
  280.0000     -0.0009
  281.0000     -0.0006
  282.0000     -0.0010
  283.0000     -0.0007
  284.0000     -0.0010
  285.0000     -0.0009
  286.0000     -0.0005
  287.0000     -0.0010
  288.0000     -0.0009
  289.0000      0.0001
  290.0000     -0.0007
  291.0000     -0.0006
  292.0000     -0.0010
  293.0000     -0.0001
  294.0000     -0.0008
  295.0000     -0.0014
  296.0000     -0.0006
  297.0000     -0.0010
  298.0000     -0.0012
  299.0000     -0.0006
  300.0000     -0.0010
  301.0000     -0.0006
  302.0000     -0.0007
  303.0000     -0.0015
  304.0000     -0.0010
  305.0000     -0.0005
  306.0000     -0.0009
  307.0000     -0.0008
  308.0000     -0.0002
  309.0000      0.0003
  310.0000     -0.0010
  311.0000     -0.0010
  312.0000     -0.0008
  313.0000     -0.0005
  314.0000     -0.0011
  315.0000     -0.0002
  316.0000     -0.0007
  317.0000     -0.0008
  318.0000     -0.0006
  319.0000     -0.0006
  320.0000     -0.0006
  321.0000     -0.0006
  322.0000     -0.0012
  323.0000     -0.0009
  324.0000     -0.0006
  325.0000     -0.0011
  326.0000     -0.0017
  327.0000     -0.0012
  328.0000     -0.0008
  329.0000     -0.0012
  330.0000     -0.0013
  331.0000     -0.0017
  332.0000     -0.0013
  333.0000     -0.0017
  334.0000     -0.0017
  335.0000     -0.0016
  336.0000     -0.0012
  337.0000     -0.0018
  338.0000     -0.0016
  339.0000     -0.0016
  340.0000     -0.0014
  341.0000     -0.0016
  342.0000     -0.0018
  343.0000     -0.0016
  344.0000     -0.0018
  345.0000     -0.0018
  346.0000     -0.0018
  347.0000     -0.0020
  348.0000     -0.0021
  349.0000     -0.0019
  350.0000     -0.0019
  351.0000     -0.0022
  352.0000     -0.0022
  353.0000     -0.0022
  354.0000     -0.0024
  355.0000     -0.0025
  356.0000     -0.0022
  357.0000     -0.0008
  358.0000     -0.0006
  359.0000     -0.0018
  360.0000     -0.0019
  361.0000     -0.0011
  362.0000     -0.0017
  363.0000     -0.0018
  364.0000     -0.0005
  365.0000     -0.0015
  366.0000     -0.0020
  367.0000     -0.0011
  368.0000     -0.0016
  369.0000     -0.0019
  370.0000     -0.0024
  371.0000     -0.0007
  372.0000     -0.0016
  373.0000     -0.0026
  374.0000     -0.0011
  375.0000     -0.0009
  376.0000     -0.0017
  377.0000     -0.0018
  378.0000     -0.0013
  379.0000     -0.0023
  380.0000     -0.0019
  381.0000     -0.0019
  382.0000     -0.0006
  383.0000     -0.0020
  384.0000     -0.0016
  385.0000     -0.0016
  386.0000     -0.0019
  387.0000     -0.0019
  388.0000     -0.0021
  389.0000     -0.0017
  390.0000     -0.0013
  391.0000     -0.0014
  392.0000     -0.0016
  393.0000     -0.0018
  394.0000     -0.0013
  395.0000     -0.0020
  396.0000     -0.0018
  397.0000     -0.0015
  398.0000     -0.0015
  399.0000     -0.0018
  400.0000     -0.0023
  401.0000     -0.0017
  402.0000     -0.0018
  403.0000     -0.0022
  404.0000     -0.0020
  405.0000     -0.0014
  406.0000     -0.0021
  407.0000     -0.0024
  408.0000     -0.0021
  409.0000     -0.0022
  410.0000     -0.0023
  411.0000     -0.0020
  412.0000     -0.0021
  413.0000     -0.0023
  414.0000     -0.0023
  415.0000     -0.0023
  416.0000     -0.0022
  417.0000     -0.0023
  418.0000     -0.0025
  419.0000     -0.0024
  420.0000     -0.0023
  421.0000     -0.0024
  422.0000     -0.0023
  423.0000     -0.0023
  424.0000     -0.0024
  425.0000     -0.0024
  426.0000     -0.0025
  427.0000     -0.0024
  428.0000     -0.0024
  429.0000     -0.0023
  430.0000     -0.0023
  431.0000     -0.0022
  432.0000     -0.0024
  433.0000     -0.0024
  434.0000     -0.0024
  435.0000     -0.0024
  436.0000     -0.0024
  437.0000     -0.0024
  438.0000     -0.0025
  439.0000     -0.0025
  440.0000     -0.0025
  441.0000     -0.0025
  442.0000     -0.0025
  443.0000     -0.0025
  444.0000     -0.0024
  445.0000     -0.0024
  446.0000     -0.0023
  447.0000     -0.0023
  448.0000     -0.0023
  449.0000     -0.0023
  450.0000     -0.0023
  451.0000     -0.0021
  452.0000     -0.0023
  453.0000     -0.0022
  454.0000     -0.0022
  455.0000     -0.0021
  456.0000     -0.0022
  457.0000     -0.0022
  458.0000     -0.0021
  459.0000     -0.0022
  460.0000     -0.0022
  461.0000     -0.0022
  462.0000     -0.0022
  463.0000     -0.0023
  464.0000     -0.0022
  465.0000     -0.0022
  466.0000     -0.0021
  467.0000     -0.0022
  468.0000     -0.0022
  469.0000     -0.0022
  470.0000     -0.0022
  471.0000     -0.0022
  472.0000     -0.0022
  473.0000     -0.0021
  474.0000     -0.0021
  475.0000     -0.0021
  476.0000     -0.0022
  477.0000     -0.0022
  478.0000     -0.0022
  479.0000     -0.0023
  480.0000     -0.0023
  481.0000     -0.0023
  482.0000     -0.0023
  483.0000     -0.0024
  484.0000     -0.0024
  485.0000     -0.0024
  486.0000     -0.0024
  487.0000     -0.0024
  488.0000     -0.0024
  489.0000     -0.0024
  490.0000     -0.0025
  491.0000     -0.0024
  492.0000     -0.0024
  493.0000     -0.0024
  494.0000     -0.0024
  495.0000     -0.0024
  496.0000     -0.0024
  497.0000     -0.0025
  498.0000     -0.0024
  499.0000     -0.0024
  500.0000     -0.0024
  501.0000     -0.0025
  502.0000     -0.0024
  503.0000     -0.0024
  504.0000     -0.0024
  505.0000     -0.0025
  506.0000     -0.0024
  507.0000     -0.0025
  508.0000     -0.0025
  509.0000     -0.0024
  510.0000     -0.0025
  511.0000     -0.0025
  512.0000     -0.0025
  513.0000     -0.0025
  514.0000     -0.0025
  515.0000     -0.0025
  516.0000     -0.0025
  517.0000     -0.0025
  518.0000     -0.0025
  519.0000     -0.0025
  520.0000     -0.0025
  521.0000     -0.0025
  522.0000     -0.0025
  523.0000     -0.0026
  524.0000     -0.0025
  525.0000     -0.0025
  526.0000     -0.0025
  527.0000     -0.0025
  528.0000     -0.0025
  529.0000     -0.0025
  530.0000     -0.0025
  531.0000     -0.0025
  532.0000     -0.0025
  533.0000     -0.0025
  534.0000     -0.0025
  535.0000     -0.0026
  536.0000     -0.0026
  537.0000     -0.0026
  538.0000     -0.0025
  539.0000     -0.0025
  540.0000     -0.0026
  541.0000     -0.0025
  542.0000     -0.0025
  543.0000     -0.0025
  544.0000     -0.0026
  545.0000     -0.0026
  546.0000     -0.0026
  547.0000     -0.0026
  548.0000     -0.0026
  549.0000     -0.0026
  550.0000     -0.0026
  551.0000     -0.0026
  552.0000     -0.0026
  553.0000     -0.0026
  554.0000     -0.0026
  555.0000     -0.0026
  556.0000     -0.0027
  557.0000     -0.0019
  558.0000     -0.0020
  559.0000     -0.0020
  560.0000     -0.0021
  561.0000     -0.0021
  562.0000     -0.0021
  563.0000     -0.0021
  564.0000     -0.0022
  565.0000     -0.0022
  566.0000     -0.0022
  567.0000     -0.0023
  568.0000     -0.0023
  569.0000     -0.0023
  570.0000     -0.0023
  571.0000     -0.0023
  572.0000     -0.0023
  573.0000     -0.0023
  574.0000     -0.0023
  575.0000     -0.0023
  576.0000     -0.0023
  577.0000     -0.0024
  578.0000     -0.0024
  579.0000     -0.0024
  580.0000     -0.0024
  581.0000     -0.0024
  582.0000     -0.0024
  583.0000     -0.0024
  584.0000     -0.0024
  585.0000     -0.0024
  586.0000     -0.0024
  587.0000     -0.0025
  588.0000     -0.0025
  589.0000     -0.0025
  590.0000     -0.0025
  591.0000     -0.0025
  592.0000     -0.0025
  593.0000     -0.0025
  594.0000     -0.0025
  595.0000     -0.0025
  596.0000     -0.0025
  597.0000     -0.0026
  598.0000     -0.0025
  599.0000     -0.0025
  600.0000     -0.0024
  601.0000     -0.0024
  602.0000     -0.0024
  603.0000     -0.0023
  604.0000     -0.0023
  605.0000     -0.0023
  606.0000     -0.0023
  607.0000     -0.0023
  608.0000     -0.0023
  609.0000     -0.0023
  610.0000     -0.0022
  611.0000     -0.0023
  612.0000     -0.0023
  613.0000     -0.0023
  614.0000     -0.0023
  615.0000     -0.0023
  616.0000     -0.0022
  617.0000     -0.0022
  618.0000     -0.0021
  619.0000     -0.0021
  620.0000     -0.0021
  621.0000     -0.0021
  622.0000     -0.0020
  623.0000     -0.0020
  624.0000     -0.0020
  625.0000     -0.0019
  626.0000     -0.0019
  627.0000     -0.0019
  628.0000     -0.0019
  629.0000     -0.0019
  630.0000     -0.0019
  631.0000     -0.0019
  632.0000     -0.0019
  633.0000     -0.0019
  634.0000     -0.0019
  635.0000     -0.0018
  636.0000     -0.0018
  637.0000     -0.0019
  638.0000     -0.0019
  639.0000     -0.0020
  640.0000     -0.0020
  641.0000     -0.0020
  642.0000     -0.0020
  643.0000     -0.0020
  644.0000     -0.0020
  645.0000     -0.0020
  646.0000     -0.0020
  647.0000     -0.0020
  648.0000     -0.0020
  649.0000     -0.0020
  650.0000     -0.0019
  651.0000     -0.0019
  652.0000     -0.0019
  653.0000     -0.0019
  654.0000     -0.0019
  655.0000     -0.0019
  656.0000     -0.0019
  657.0000     -0.0019
  658.0000     -0.0018
  659.0000     -0.0019
  660.0000     -0.0019
  661.0000     -0.0019
  662.0000     -0.0019
  663.0000     -0.0019
  664.0000     -0.0019
  665.0000     -0.0019
  666.0000     -0.0019
  667.0000     -0.0019
  668.0000     -0.0019
  669.0000     -0.0019
  670.0000     -0.0018
  671.0000     -0.0018
  672.0000     -0.0018
  673.0000     -0.0018
  674.0000     -0.0018
  675.0000     -0.0018
  676.0000     -0.0018
  677.0000     -0.0018
  678.0000     -0.0018
  679.0000     -0.0018
  680.0000     -0.0018
  681.0000     -0.0018
  682.0000     -0.0018
  683.0000     -0.0018
  684.0000     -0.0018
  685.0000     -0.0018
  686.0000     -0.0017
  687.0000     -0.0018
  688.0000     -0.0018
  689.0000     -0.0018
  690.0000     -0.0018
  691.0000     -0.0018
  692.0000     -0.0018
  693.0000     -0.0018
  694.0000     -0.0018
  695.0000     -0.0018
  696.0000     -0.0018
  697.0000     -0.0017
  698.0000     -0.0018
  699.0000     -0.0018
  700.0000     -0.0017
  701.0000     -0.0017
  702.0000     -0.0017
  703.0000     -0.0017
  704.0000     -0.0017
  705.0000     -0.0017
  706.0000     -0.0017
  707.0000     -0.0017
  708.0000     -0.0017
  709.0000     -0.0017
  710.0000     -0.0017
  711.0000     -0.0017
  712.0000     -0.0017
  713.0000     -0.0017
  714.0000     -0.0017
  715.0000     -0.0017
  716.0000     -0.0017
  717.0000     -0.0018
  718.0000     -0.0018
  719.0000     -0.0017
  720.0000     -0.0017
  721.0000     -0.0017
  722.0000     -0.0017
  723.0000     -0.0017
  724.0000     -0.0017
  725.0000     -0.0017
  726.0000     -0.0017
  727.0000     -0.0017
  728.0000     -0.0016
  729.0000     -0.0017
  730.0000     -0.0017
  731.0000     -0.0017
  732.0000     -0.0017
  733.0000     -0.0017
  734.0000     -0.0017
  735.0000     -0.0017
  736.0000     -0.0016
  737.0000     -0.0016
  738.0000     -0.0017
  739.0000     -0.0017
  740.0000     -0.0016
  741.0000     -0.0017
  742.0000     -0.0018
  743.0000     -0.0017
  744.0000     -0.0018
  745.0000     -0.0018
  746.0000     -0.0018
  747.0000     -0.0017
  748.0000     -0.0018
  749.0000     -0.0018
  750.0000     -0.0018
  751.0000     -0.0018
  752.0000     -0.0018
  753.0000     -0.0018
  754.0000     -0.0018
  755.0000     -0.0018
  756.0000     -0.0018
  757.0000     -0.0018
  758.0000     -0.0018
  759.0000     -0.0018
  760.0000     -0.0018
  761.0000     -0.0018
  762.0000     -0.0018
  763.0000     -0.0018
  764.0000     -0.0017
  765.0000     -0.0018
  766.0000     -0.0018
  767.0000     -0.0017
  768.0000     -0.0018
  769.0000     -0.0018
  770.0000     -0.0018
  771.0000     -0.0018
  772.0000     -0.0018
  773.0000     -0.0017
  774.0000     -0.0018
  775.0000     -0.0018
  776.0000     -0.0018
  777.0000     -0.0018
  778.0000     -0.0018
  779.0000     -0.0018
  780.0000     -0.0018
  781.0000     -0.0018
  782.0000     -0.0018
  783.0000     -0.0018
  784.0000     -0.0018
  785.0000     -0.0018
  786.0000     -0.0018
  787.0000     -0.0018
  788.0000     -0.0018
  789.0000     -0.0018
  790.0000     -0.0018
  791.0000     -0.0017
  792.0000     -0.0018
  793.0000     -0.0018
  794.0000     -0.0018
  795.0000     -0.0018
  796.0000     -0.0019
  797.0000     -0.0018
  798.0000     -0.0019
  799.0000     -0.0019
  800.0000     -0.0020
