Start Wavelength:    200.0000
End Wavelength:    800.0000
Read Mode:  ABS
Read Average:      0.1000
Nanometer Interval:      1.0000
Time:      0.0000

  200.0000      1.7247
  201.0000      1.1737
  202.0000      0.9383
  203.0000      0.7564
  204.0000      0.6166
  205.0000      0.5286
  206.0000      0.4692
  207.0000      0.4220
  208.0000      0.3878
  209.0000      0.3567
  210.0000      0.3337
  211.0000      0.3149
  212.0000      0.2986
  213.0000      0.2836
  214.0000      0.2712
  215.0000      0.2600
  216.0000      0.2513
  217.0000      0.2422
  218.0000      0.2354
  219.0000      0.2288
  220.0000      0.2219
  221.0000      0.2161
  222.0000      0.2106
  223.0000      0.2055
  224.0000      0.2011
  225.0000      0.1955
  226.0000      0.1915
  227.0000      0.1870
  228.0000      0.1828
  229.0000      0.1782
  230.0000      0.1741
  231.0000      0.1702
  232.0000      0.1660
  233.0000      0.1620
  234.0000      0.1586
  235.0000      0.1551
  236.0000      0.1515
  237.0000      0.1483
  238.0000      0.1451
  239.0000      0.1426
  240.0000      0.1400
  241.0000      0.1375
  242.0000      0.1355
  243.0000      0.1333
  244.0000      0.1317
  245.0000      0.1297
  246.0000      0.1280
  247.0000      0.1267
  248.0000      0.1250
  249.0000      0.1237
  250.0000      0.1224
  251.0000      0.1211
  252.0000      0.1201
  253.0000      0.1189
  254.0000      0.1175
  255.0000      0.1164
  256.0000      0.1146
  257.0000      0.1139
  258.0000      0.1129
  259.0000      0.1114
  260.0000      0.1102
  261.0000      0.1084
  262.0000      0.1072
  263.0000      0.1060
  264.0000      0.1042
  265.0000      0.1033
  266.0000      0.1009
  267.0000      0.0996
  268.0000      0.0979
  269.0000      0.0962
  270.0000      0.0949
  271.0000      0.0928
  272.0000      0.0912
  273.0000      0.0895
  274.0000      0.0875
  275.0000      0.0856
  276.0000      0.0844
  277.0000      0.0823
  278.0000      0.0806
  279.0000      0.0787
  280.0000      0.0774
  281.0000      0.0757
  282.0000      0.0742
  283.0000      0.0723
  284.0000      0.0701
  285.0000      0.0692
  286.0000      0.0679
  287.0000      0.0653
  288.0000      0.0640
  289.0000      0.0626
  290.0000      0.0609
  291.0000      0.0595
  292.0000      0.0576
  293.0000      0.0569
  294.0000      0.0555
  295.0000      0.0540
  296.0000      0.0529
  297.0000      0.0512
  298.0000      0.0504
  299.0000      0.0488
  300.0000      0.0481
  301.0000      0.0473
  302.0000      0.0466
  303.0000      0.0451
  304.0000      0.0444
  305.0000      0.0433
  306.0000      0.0428
  307.0000      0.0421
  308.0000      0.0414
  309.0000      0.0408
  310.0000      0.0399
  311.0000      0.0394
  312.0000      0.0389
  313.0000      0.0378
  314.0000      0.0377
  315.0000      0.0365
  316.0000      0.0368
  317.0000      0.0358
  318.0000      0.0355
  319.0000      0.0352
  320.0000      0.0346
  321.0000      0.0348
  322.0000      0.0336
  323.0000      0.0327
  324.0000      0.0326
  325.0000      0.0319
  326.0000      0.0313
  327.0000      0.0310
  328.0000      0.0305
  329.0000      0.0302
  330.0000      0.0298
  331.0000      0.0298
  332.0000      0.0292
  333.0000      0.0286
  334.0000      0.0290
  335.0000      0.0286
  336.0000      0.0279
  337.0000      0.0284
  338.0000      0.0279
  339.0000      0.0274
  340.0000      0.0272
  341.0000      0.0270
  342.0000      0.0269
  343.0000      0.0259
  344.0000      0.0260
  345.0000      0.0252
  346.0000      0.0255
  347.0000      0.0253
  348.0000      0.0247
  349.0000      0.0245
  350.0000      0.0240
  351.0000      0.0238
  352.0000      0.0241
  353.0000      0.0234
  354.0000      0.0236
  355.0000      0.0230
  356.0000      0.0231
  357.0000      0.0237
  358.0000      0.0235
  359.0000      0.0222
  360.0000      0.0238
  361.0000      0.0226
  362.0000      0.0233
  363.0000      0.0236
  364.0000      0.0217
  365.0000      0.0241
  366.0000      0.0212
  367.0000      0.0223
  368.0000      0.0216
  369.0000      0.0208
  370.0000      0.0214
  371.0000      0.0202
  372.0000      0.0212
  373.0000      0.0201
  374.0000      0.0209
  375.0000      0.0203
  376.0000      0.0203
  377.0000      0.0205
  378.0000      0.0197
  379.0000      0.0202
  380.0000      0.0196
  381.0000      0.0196
  382.0000      0.0192
  383.0000      0.0194
  384.0000      0.0197
  385.0000      0.0193
  386.0000      0.0187
  387.0000      0.0185
  388.0000      0.0185
  389.0000      0.0186
  390.0000      0.0176
  391.0000      0.0182
  392.0000      0.0181
  393.0000      0.0174
  394.0000      0.0181
  395.0000      0.0176
  396.0000      0.0176
  397.0000      0.0177
  398.0000      0.0174
  399.0000      0.0176
  400.0000      0.0172
  401.0000      0.0170
  402.0000      0.0174
  403.0000      0.0168
  404.0000      0.0172
  405.0000      0.0171
  406.0000      0.0170
  407.0000      0.0170
  408.0000      0.0167
  409.0000      0.0167
  410.0000      0.0167
  411.0000      0.0163
  412.0000      0.0165
  413.0000      0.0160
  414.0000      0.0166
  415.0000      0.0164
  416.0000      0.0154
  417.0000      0.0154
  418.0000      0.0153
  419.0000      0.0152
  420.0000      0.0152
  421.0000      0.0153
  422.0000      0.0151
  423.0000      0.0150
  424.0000      0.0151
  425.0000      0.0150
  426.0000      0.0153
  427.0000      0.0151
  428.0000      0.0152
  429.0000      0.0152
  430.0000      0.0151
  431.0000      0.0151
  432.0000      0.0151
  433.0000      0.0151
  434.0000      0.0151
  435.0000      0.0149
  436.0000      0.0149
  437.0000      0.0148
  438.0000      0.0149
  439.0000      0.0147
  440.0000      0.0146
  441.0000      0.0145
  442.0000      0.0145
  443.0000      0.0145
  444.0000      0.0143
  445.0000      0.0144
  446.0000      0.0143
  447.0000      0.0142
  448.0000      0.0142
  449.0000      0.0141
  450.0000      0.0141
  451.0000      0.0139
  452.0000      0.0139
  453.0000      0.0138
  454.0000      0.0138
  455.0000      0.0138
  456.0000      0.0137
  457.0000      0.0137
  458.0000      0.0135
  459.0000      0.0136
  460.0000      0.0135
  461.0000      0.0135
  462.0000      0.0134
  463.0000      0.0134
  464.0000      0.0135
  465.0000      0.0134
  466.0000      0.0135
  467.0000      0.0135
  468.0000      0.0135
  469.0000      0.0135
  470.0000      0.0134
  471.0000      0.0134
  472.0000      0.0133
  473.0000      0.0133
  474.0000      0.0132
  475.0000      0.0132
  476.0000      0.0131
  477.0000      0.0130
  478.0000      0.0131
  479.0000      0.0130
  480.0000      0.0130
  481.0000      0.0129
  482.0000      0.0128
  483.0000      0.0128
  484.0000      0.0128
  485.0000      0.0128
  486.0000      0.0128
  487.0000      0.0128
  488.0000      0.0127
  489.0000      0.0126
  490.0000      0.0126
  491.0000      0.0125
  492.0000      0.0125
  493.0000      0.0125
  494.0000      0.0124
  495.0000      0.0124
  496.0000      0.0124
  497.0000      0.0123
  498.0000      0.0122
  499.0000      0.0122
  500.0000      0.0121
  501.0000      0.0120
  502.0000      0.0120
  503.0000      0.0119
  504.0000      0.0118
  505.0000      0.0118
  506.0000      0.0117
  507.0000      0.0117
  508.0000      0.0116
  509.0000      0.0115
  510.0000      0.0114
  511.0000      0.0113
  512.0000      0.0113
  513.0000      0.0112
  514.0000      0.0112
  515.0000      0.0111
  516.0000      0.0111
  517.0000      0.0110
  518.0000      0.0110
  519.0000      0.0109
  520.0000      0.0108
  521.0000      0.0107
  522.0000      0.0106
  523.0000      0.0104
  524.0000      0.0103
  525.0000      0.0103
  526.0000      0.0103
  527.0000      0.0102
  528.0000      0.0102
  529.0000      0.0102
  530.0000      0.0101
  531.0000      0.0101
  532.0000      0.0100
  533.0000      0.0100
  534.0000      0.0100
  535.0000      0.0100
  536.0000      0.0100
  537.0000      0.0100
  538.0000      0.0100
  539.0000      0.0101
  540.0000      0.0100
  541.0000      0.0100
  542.0000      0.0099
  543.0000      0.0099
  544.0000      0.0098
  545.0000      0.0098
  546.0000      0.0097
  547.0000      0.0097
  548.0000      0.0097
  549.0000      0.0097
  550.0000      0.0097
  551.0000      0.0097
  552.0000      0.0096
  553.0000      0.0096
  554.0000      0.0095
  555.0000      0.0095
  556.0000      0.0095
  557.0000      0.0097
  558.0000      0.0096
  559.0000      0.0096
  560.0000      0.0096
  561.0000      0.0095
  562.0000      0.0095
  563.0000      0.0095
  564.0000      0.0094
  565.0000      0.0094
  566.0000      0.0094
  567.0000      0.0094
  568.0000      0.0095
  569.0000      0.0095
  570.0000      0.0094
  571.0000      0.0095
  572.0000      0.0094
  573.0000      0.0094
  574.0000      0.0094
  575.0000      0.0094
  576.0000      0.0093
  577.0000      0.0094
  578.0000      0.0093
  579.0000      0.0093
  580.0000      0.0093
  581.0000      0.0093
  582.0000      0.0093
  583.0000      0.0093
  584.0000      0.0093
  585.0000      0.0093
  586.0000      0.0093
  587.0000      0.0093
  588.0000      0.0093
  589.0000      0.0093
  590.0000      0.0092
  591.0000      0.0092
  592.0000      0.0092
  593.0000      0.0092
  594.0000      0.0092
  595.0000      0.0092
  596.0000      0.0092
  597.0000      0.0091
  598.0000      0.0092
  599.0000      0.0092
  600.0000      0.0091
  601.0000      0.0091
  602.0000      0.0090
  603.0000      0.0090
  604.0000      0.0089
  605.0000      0.0089
  606.0000      0.0089
  607.0000      0.0089
  608.0000      0.0088
  609.0000      0.0088
  610.0000      0.0088
  611.0000      0.0088
  612.0000      0.0088
  613.0000      0.0088
  614.0000      0.0088
  615.0000      0.0088
  616.0000      0.0087
  617.0000      0.0087
  618.0000      0.0087
  619.0000      0.0087
  620.0000      0.0087
  621.0000      0.0087
  622.0000      0.0087
  623.0000      0.0087
  624.0000      0.0088
  625.0000      0.0088
  626.0000      0.0088
  627.0000      0.0088
  628.0000      0.0088
  629.0000      0.0087
  630.0000      0.0088
  631.0000      0.0088
  632.0000      0.0088
  633.0000      0.0087
  634.0000      0.0088
  635.0000      0.0088
  636.0000      0.0087
  637.0000      0.0087
  638.0000      0.0087
  639.0000      0.0087
  640.0000      0.0087
  641.0000      0.0087
  642.0000      0.0087
  643.0000      0.0087
  644.0000      0.0087
  645.0000      0.0087
  646.0000      0.0086
  647.0000      0.0086
  648.0000      0.0087
  649.0000      0.0087
  650.0000      0.0087
  651.0000      0.0087
  652.0000      0.0087
  653.0000      0.0087
  654.0000      0.0087
  655.0000      0.0087
  656.0000      0.0086
  657.0000      0.0086
  658.0000      0.0087
  659.0000      0.0087
  660.0000      0.0087
  661.0000      0.0087
  662.0000      0.0088
  663.0000      0.0088
  664.0000      0.0088
  665.0000      0.0088
  666.0000      0.0088
  667.0000      0.0089
  668.0000      0.0089
  669.0000      0.0090
  670.0000      0.0090
  671.0000      0.0091
  672.0000      0.0091
  673.0000      0.0091
  674.0000      0.0092
  675.0000      0.0092
  676.0000      0.0093
  677.0000      0.0093
  678.0000      0.0092
  679.0000      0.0092
  680.0000      0.0092
  681.0000      0.0092
  682.0000      0.0092
  683.0000      0.0092
  684.0000      0.0092
  685.0000      0.0091
  686.0000      0.0091
  687.0000      0.0090
  688.0000      0.0090
  689.0000      0.0089
  690.0000      0.0089
  691.0000      0.0089
  692.0000      0.0089
  693.0000      0.0088
  694.0000      0.0087
  695.0000      0.0087
  696.0000      0.0086
  697.0000      0.0086
  698.0000      0.0085
  699.0000      0.0085
  700.0000      0.0086
  701.0000      0.0085
  702.0000      0.0085
  703.0000      0.0084
  704.0000      0.0084
  705.0000      0.0084
  706.0000      0.0083
  707.0000      0.0083
  708.0000      0.0082
  709.0000      0.0082
  710.0000      0.0082
  711.0000      0.0082
  712.0000      0.0082
  713.0000      0.0082
  714.0000      0.0081
  715.0000      0.0081
  716.0000      0.0080
  717.0000      0.0080
  718.0000      0.0080
  719.0000      0.0080
  720.0000      0.0080
  721.0000      0.0080
  722.0000      0.0079
  723.0000      0.0079
  724.0000      0.0079
  725.0000      0.0079
  726.0000      0.0079
  727.0000      0.0079
  728.0000      0.0079
  729.0000      0.0078
  730.0000      0.0078
  731.0000      0.0078
  732.0000      0.0078
  733.0000      0.0078
  734.0000      0.0078
  735.0000      0.0078
  736.0000      0.0077
  737.0000      0.0077
  738.0000      0.0076
  739.0000      0.0076
  740.0000      0.0076
  741.0000      0.0076
  742.0000      0.0076
  743.0000      0.0077
  744.0000      0.0076
  745.0000      0.0076
  746.0000      0.0075
  747.0000      0.0075
  748.0000      0.0075
  749.0000      0.0075
  750.0000      0.0075
  751.0000      0.0074
  752.0000      0.0074
  753.0000      0.0075
  754.0000      0.0074
  755.0000      0.0074
  756.0000      0.0074
  757.0000      0.0074
  758.0000      0.0074
  759.0000      0.0074
  760.0000      0.0074
  761.0000      0.0074
  762.0000      0.0075
  763.0000      0.0074
  764.0000      0.0075
  765.0000      0.0075
  766.0000      0.0075
  767.0000      0.0075
  768.0000      0.0076
  769.0000      0.0075
  770.0000      0.0076
  771.0000      0.0076
  772.0000      0.0075
  773.0000      0.0075
  774.0000      0.0076
  775.0000      0.0075
  776.0000      0.0075
  777.0000      0.0075
  778.0000      0.0075
  779.0000      0.0075
  780.0000      0.0075
  781.0000      0.0075
  782.0000      0.0076
  783.0000      0.0075
  784.0000      0.0075
  785.0000      0.0075
  786.0000      0.0076
  787.0000      0.0076
  788.0000      0.0075
  789.0000      0.0075
  790.0000      0.0075
  791.0000      0.0075
  792.0000      0.0075
  793.0000      0.0076
  794.0000      0.0076
  795.0000      0.0076
  796.0000      0.0075
  797.0000      0.0076
  798.0000      0.0075
  799.0000      0.0075
  800.0000      0.0074
