Start Wavelength:    200.0000
End Wavelength:    800.0000
Read Mode:  ABS
Read Average:      0.1000
Nanometer Interval:      1.0000
Time:      0.0000

  200.0000      0.0029
  201.0000      0.0024
  202.0000      0.0013
  203.0000      0.0017
  204.0000      0.0011
  205.0000      0.0012
  206.0000      0.0002
  207.0000     -0.0002
  208.0000     -0.0004
  209.0000     -0.0012
  210.0000     -0.0007
  211.0000     -0.0017
  212.0000     -0.0014
  213.0000     -0.0019
  214.0000     -0.0025
  215.0000     -0.0029
  216.0000     -0.0029
  217.0000     -0.0032
  218.0000     -0.0032
  219.0000     -0.0033
  220.0000     -0.0037
  221.0000     -0.0036
  222.0000     -0.0037
  223.0000     -0.0035
  224.0000     -0.0034
  225.0000     -0.0036
  226.0000     -0.0035
  227.0000     -0.0037
  228.0000     -0.0036
  229.0000     -0.0041
  230.0000     -0.0035
  231.0000     -0.0037
  232.0000     -0.0039
  233.0000     -0.0035
  234.0000     -0.0034
  235.0000     -0.0033
  236.0000     -0.0036
  237.0000     -0.0034
  238.0000     -0.0034
  239.0000     -0.0031
  240.0000     -0.0032
  241.0000     -0.0030
  242.0000     -0.0028
  243.0000     -0.0027
  244.0000     -0.0026
  245.0000     -0.0029
  246.0000     -0.0023
  247.0000     -0.0027
  248.0000     -0.0024
  249.0000     -0.0023
  250.0000     -0.0023
  251.0000     -0.0023
  252.0000     -0.0023
  253.0000     -0.0020
  254.0000     -0.0022
  255.0000     -0.0026
  256.0000     -0.0024
  257.0000     -0.0023
  258.0000     -0.0022
  259.0000     -0.0020
  260.0000     -0.0023
  261.0000     -0.0022
  262.0000     -0.0022
  263.0000     -0.0021
  264.0000     -0.0022
  265.0000     -0.0023
  266.0000     -0.0025
  267.0000     -0.0023
  268.0000     -0.0023
  269.0000     -0.0022
  270.0000     -0.0024
  271.0000     -0.0023
  272.0000     -0.0024
  273.0000     -0.0026
  274.0000     -0.0024
  275.0000     -0.0029
  276.0000     -0.0022
  277.0000     -0.0025
  278.0000     -0.0027
  279.0000     -0.0024
  280.0000     -0.0026
  281.0000     -0.0023
  282.0000     -0.0023
  283.0000     -0.0028
  284.0000     -0.0025
  285.0000     -0.0024
  286.0000     -0.0023
  287.0000     -0.0026
  288.0000     -0.0026
  289.0000     -0.0022
  290.0000     -0.0025
  291.0000     -0.0023
  292.0000     -0.0023
  293.0000     -0.0021
  294.0000     -0.0023
  295.0000     -0.0018
  296.0000     -0.0021
  297.0000     -0.0023
  298.0000     -0.0024
  299.0000     -0.0022
  300.0000     -0.0018
  301.0000     -0.0024
  302.0000     -0.0018
  303.0000     -0.0021
  304.0000     -0.0018
  305.0000     -0.0026
  306.0000     -0.0023
  307.0000     -0.0018
  308.0000     -0.0024
  309.0000     -0.0018
  310.0000     -0.0019
  311.0000     -0.0017
  312.0000     -0.0017
  313.0000     -0.0023
  314.0000     -0.0020
  315.0000     -0.0019
  316.0000     -0.0021
  317.0000     -0.0019
  318.0000     -0.0019
  319.0000     -0.0021
  320.0000     -0.0018
  321.0000     -0.0017
  322.0000     -0.0016
  323.0000     -0.0023
  324.0000     -0.0022
  325.0000     -0.0018
  326.0000     -0.0020
  327.0000     -0.0019
  328.0000     -0.0022
  329.0000     -0.0021
  330.0000     -0.0023
  331.0000     -0.0024
  332.0000     -0.0023
  333.0000     -0.0021
  334.0000     -0.0021
  335.0000     -0.0018
  336.0000     -0.0024
  337.0000     -0.0016
  338.0000     -0.0019
  339.0000     -0.0023
  340.0000     -0.0017
  341.0000     -0.0019
  342.0000     -0.0018
  343.0000     -0.0022
  344.0000     -0.0017
  345.0000     -0.0023
  346.0000     -0.0021
  347.0000     -0.0018
  348.0000     -0.0021
  349.0000     -0.0022
  350.0000     -0.0024
  351.0000     -0.0020
  352.0000     -0.0018
  353.0000     -0.0023
  354.0000     -0.0018
  355.0000     -0.0020
  356.0000     -0.0021
  357.0000     -0.0015
  358.0000     -0.0016
  359.0000     -0.0012
  360.0000     -0.0014
  361.0000     -0.0014
  362.0000     -0.0009
  363.0000     -0.0017
  364.0000     -0.0013
  365.0000     -0.0007
  366.0000     -0.0021
  367.0000     -0.0008
  368.0000     -0.0026
  369.0000     -0.0019
  370.0000     -0.0020
  371.0000     -0.0020
  372.0000     -0.0012
  373.0000     -0.0020
  374.0000     -0.0003
  375.0000     -0.0015
  376.0000     -0.0013
  377.0000     -0.0011
  378.0000     -0.0018
  379.0000     -0.0014
  380.0000     -0.0018
  381.0000     -0.0010
  382.0000     -0.0020
  383.0000     -0.0016
  384.0000     -0.0010
  385.0000     -0.0020
  386.0000     -0.0011
  387.0000     -0.0019
  388.0000     -0.0012
  389.0000     -0.0015
  390.0000     -0.0022
  391.0000     -0.0014
  392.0000     -0.0019
  393.0000     -0.0015
  394.0000     -0.0011
  395.0000     -0.0019
  396.0000     -0.0017
  397.0000     -0.0018
  398.0000     -0.0015
  399.0000     -0.0014
  400.0000     -0.0019
  401.0000     -0.0018
  402.0000     -0.0016
  403.0000     -0.0016
  404.0000     -0.0019
  405.0000     -0.0015
  406.0000     -0.0015
  407.0000     -0.0016
  408.0000     -0.0014
  409.0000     -0.0014
  410.0000     -0.0014
  411.0000     -0.0017
  412.0000     -0.0013
  413.0000     -0.0017
  414.0000     -0.0014
  415.0000     -0.0017
  416.0000     -0.0020
  417.0000     -0.0018
  418.0000     -0.0019
  419.0000     -0.0019
  420.0000     -0.0019
  421.0000     -0.0019
  422.0000     -0.0018
  423.0000     -0.0019
  424.0000     -0.0019
  425.0000     -0.0019
  426.0000     -0.0019
  427.0000     -0.0020
  428.0000     -0.0019
  429.0000     -0.0019
  430.0000     -0.0019
  431.0000     -0.0019
  432.0000     -0.0019
  433.0000     -0.0019
  434.0000     -0.0019
  435.0000     -0.0019
  436.0000     -0.0020
  437.0000     -0.0019
  438.0000     -0.0019
  439.0000     -0.0020
  440.0000     -0.0019
  441.0000     -0.0019
  442.0000     -0.0019
  443.0000     -0.0019
  444.0000     -0.0020
  445.0000     -0.0019
  446.0000     -0.0020
  447.0000     -0.0019
  448.0000     -0.0020
  449.0000     -0.0020
  450.0000     -0.0019
  451.0000     -0.0020
  452.0000     -0.0019
  453.0000     -0.0020
  454.0000     -0.0019
  455.0000     -0.0019
  456.0000     -0.0019
  457.0000     -0.0019
  458.0000     -0.0020
  459.0000     -0.0020
  460.0000     -0.0020
  461.0000     -0.0020
  462.0000     -0.0021
  463.0000     -0.0020
  464.0000     -0.0020
  465.0000     -0.0022
  466.0000     -0.0021
  467.0000     -0.0022
  468.0000     -0.0022
  469.0000     -0.0022
  470.0000     -0.0022
  471.0000     -0.0022
  472.0000     -0.0023
  473.0000     -0.0023
  474.0000     -0.0022
  475.0000     -0.0023
  476.0000     -0.0023
  477.0000     -0.0023
  478.0000     -0.0023
  479.0000     -0.0024
  480.0000     -0.0023
  481.0000     -0.0023
  482.0000     -0.0023
  483.0000     -0.0023
  484.0000     -0.0023
  485.0000     -0.0023
  486.0000     -0.0023
  487.0000     -0.0023
  488.0000     -0.0023
  489.0000     -0.0024
  490.0000     -0.0024
  491.0000     -0.0023
  492.0000     -0.0023
  493.0000     -0.0023
  494.0000     -0.0023
  495.0000     -0.0023
  496.0000     -0.0023
  497.0000     -0.0023
  498.0000     -0.0023
  499.0000     -0.0023
  500.0000     -0.0023
  501.0000     -0.0023
  502.0000     -0.0023
  503.0000     -0.0023
  504.0000     -0.0023
  505.0000     -0.0023
  506.0000     -0.0023
  507.0000     -0.0023
  508.0000     -0.0023
  509.0000     -0.0023
  510.0000     -0.0023
  511.0000     -0.0024
  512.0000     -0.0023
  513.0000     -0.0023
  514.0000     -0.0023
  515.0000     -0.0023
  516.0000     -0.0023
  517.0000     -0.0023
  518.0000     -0.0023
  519.0000     -0.0023
  520.0000     -0.0023
  521.0000     -0.0023
  522.0000     -0.0023
  523.0000     -0.0023
  524.0000     -0.0023
  525.0000     -0.0023
  526.0000     -0.0023
  527.0000     -0.0023
  528.0000     -0.0024
  529.0000     -0.0024
  530.0000     -0.0024
  531.0000     -0.0024
  532.0000     -0.0024
  533.0000     -0.0024
  534.0000     -0.0024
  535.0000     -0.0024
  536.0000     -0.0024
  537.0000     -0.0023
  538.0000     -0.0023
  539.0000     -0.0023
  540.0000     -0.0023
  541.0000     -0.0023
  542.0000     -0.0023
  543.0000     -0.0023
  544.0000     -0.0023
  545.0000     -0.0023
  546.0000     -0.0023
  547.0000     -0.0023
  548.0000     -0.0023
  549.0000     -0.0023
  550.0000     -0.0023
  551.0000     -0.0023
  552.0000     -0.0023
  553.0000     -0.0023
  554.0000     -0.0023
  555.0000     -0.0024
  556.0000     -0.0024
  557.0000     -0.0021
  558.0000     -0.0021
  559.0000     -0.0021
  560.0000     -0.0021
  561.0000     -0.0021
  562.0000     -0.0021
  563.0000     -0.0021
  564.0000     -0.0021
  565.0000     -0.0021
  566.0000     -0.0021
  567.0000     -0.0021
  568.0000     -0.0021
  569.0000     -0.0022
  570.0000     -0.0022
  571.0000     -0.0022
  572.0000     -0.0021
  573.0000     -0.0022
  574.0000     -0.0022
  575.0000     -0.0022
  576.0000     -0.0022
  577.0000     -0.0022
  578.0000     -0.0022
  579.0000     -0.0022
  580.0000     -0.0022
  581.0000     -0.0022
  582.0000     -0.0022
  583.0000     -0.0022
  584.0000     -0.0022
  585.0000     -0.0023
  586.0000     -0.0023
  587.0000     -0.0022
  588.0000     -0.0023
  589.0000     -0.0023
  590.0000     -0.0022
  591.0000     -0.0022
  592.0000     -0.0022
  593.0000     -0.0022
  594.0000     -0.0023
  595.0000     -0.0023
  596.0000     -0.0023
  597.0000     -0.0023
  598.0000     -0.0023
  599.0000     -0.0023
  600.0000     -0.0023
  601.0000     -0.0023
  602.0000     -0.0023
  603.0000     -0.0023
  604.0000     -0.0023
  605.0000     -0.0023
  606.0000     -0.0023
  607.0000     -0.0023
  608.0000     -0.0023
  609.0000     -0.0023
  610.0000     -0.0023
  611.0000     -0.0023
  612.0000     -0.0023
  613.0000     -0.0022
  614.0000     -0.0023
  615.0000     -0.0023
  616.0000     -0.0023
  617.0000     -0.0023
  618.0000     -0.0023
  619.0000     -0.0023
  620.0000     -0.0023
  621.0000     -0.0023
  622.0000     -0.0023
  623.0000     -0.0023
  624.0000     -0.0023
  625.0000     -0.0022
  626.0000     -0.0022
  627.0000     -0.0022
  628.0000     -0.0022
  629.0000     -0.0022
  630.0000     -0.0022
  631.0000     -0.0021
  632.0000     -0.0021
  633.0000     -0.0021
  634.0000     -0.0021
  635.0000     -0.0021
  636.0000     -0.0021
  637.0000     -0.0021
  638.0000     -0.0021
  639.0000     -0.0021
  640.0000     -0.0021
  641.0000     -0.0021
  642.0000     -0.0021
  643.0000     -0.0020
  644.0000     -0.0020
  645.0000     -0.0020
  646.0000     -0.0020
  647.0000     -0.0020
  648.0000     -0.0020
  649.0000     -0.0020
  650.0000     -0.0019
  651.0000     -0.0020
  652.0000     -0.0019
  653.0000     -0.0019
  654.0000     -0.0019
  655.0000     -0.0019
  656.0000     -0.0019
  657.0000     -0.0019
  658.0000     -0.0020
  659.0000     -0.0020
  660.0000     -0.0020
  661.0000     -0.0020
  662.0000     -0.0020
  663.0000     -0.0020
  664.0000     -0.0020
  665.0000     -0.0020
  666.0000     -0.0020
  667.0000     -0.0020
  668.0000     -0.0020
  669.0000     -0.0020
  670.0000     -0.0019
  671.0000     -0.0019
  672.0000     -0.0019
  673.0000     -0.0019
  674.0000     -0.0019
  675.0000     -0.0019
  676.0000     -0.0018
  677.0000     -0.0019
  678.0000     -0.0019
  679.0000     -0.0019
  680.0000     -0.0019
  681.0000     -0.0019
  682.0000     -0.0018
  683.0000     -0.0018
  684.0000     -0.0019
  685.0000     -0.0019
  686.0000     -0.0018
  687.0000     -0.0019
  688.0000     -0.0018
  689.0000     -0.0019
  690.0000     -0.0019
  691.0000     -0.0018
  692.0000     -0.0018
  693.0000     -0.0018
  694.0000     -0.0019
  695.0000     -0.0018
  696.0000     -0.0018
  697.0000     -0.0018
  698.0000     -0.0018
  699.0000     -0.0018
  700.0000     -0.0017
  701.0000     -0.0018
  702.0000     -0.0018
  703.0000     -0.0018
  704.0000     -0.0018
  705.0000     -0.0018
  706.0000     -0.0018
  707.0000     -0.0018
  708.0000     -0.0018
  709.0000     -0.0018
  710.0000     -0.0018
  711.0000     -0.0018
  712.0000     -0.0017
  713.0000     -0.0018
  714.0000     -0.0018
  715.0000     -0.0018
  716.0000     -0.0017
  717.0000     -0.0017
  718.0000     -0.0017
  719.0000     -0.0017
  720.0000     -0.0017
  721.0000     -0.0017
  722.0000     -0.0017
  723.0000     -0.0017
  724.0000     -0.0017
  725.0000     -0.0017
  726.0000     -0.0017
  727.0000     -0.0017
  728.0000     -0.0017
  729.0000     -0.0017
  730.0000     -0.0016
  731.0000     -0.0017
  732.0000     -0.0016
  733.0000     -0.0017
  734.0000     -0.0016
  735.0000     -0.0017
  736.0000     -0.0017
  737.0000     -0.0017
  738.0000     -0.0017
  739.0000     -0.0017
  740.0000     -0.0017
  741.0000     -0.0017
  742.0000     -0.0017
  743.0000     -0.0016
  744.0000     -0.0016
  745.0000     -0.0016
  746.0000     -0.0016
  747.0000     -0.0016
  748.0000     -0.0016
  749.0000     -0.0016
  750.0000     -0.0016
  751.0000     -0.0016
  752.0000     -0.0016
  753.0000     -0.0016
  754.0000     -0.0016
  755.0000     -0.0016
  756.0000     -0.0016
  757.0000     -0.0016
  758.0000     -0.0016
  759.0000     -0.0016
  760.0000     -0.0015
  761.0000     -0.0016
  762.0000     -0.0015
  763.0000     -0.0016
  764.0000     -0.0015
  765.0000     -0.0016
  766.0000     -0.0015
  767.0000     -0.0016
  768.0000     -0.0016
  769.0000     -0.0016
  770.0000     -0.0015
  771.0000     -0.0015
  772.0000     -0.0015
  773.0000     -0.0016
  774.0000     -0.0015
  775.0000     -0.0016
  776.0000     -0.0016
  777.0000     -0.0016
  778.0000     -0.0016
  779.0000     -0.0016
  780.0000     -0.0015
  781.0000     -0.0015
  782.0000     -0.0015
  783.0000     -0.0016
  784.0000     -0.0015
  785.0000     -0.0016
  786.0000     -0.0015
  787.0000     -0.0015
  788.0000     -0.0015
  789.0000     -0.0015
  790.0000     -0.0015
  791.0000     -0.0015
  792.0000     -0.0015
  793.0000     -0.0015
  794.0000     -0.0015
  795.0000     -0.0015
  796.0000     -0.0015
  797.0000     -0.0014
  798.0000     -0.0015
  799.0000     -0.0015
  800.0000     -0.0016
