Start Wavelength:    200.0000
End Wavelength:    800.0000
Read Mode:  ABS
Read Average:      0.1000
Nanometer Interval:      1.0000
Time:      0.0000

  200.0000      1.7097
  201.0000      1.1591
  202.0000      0.9353
  203.0000      0.7564
  204.0000      0.6218
  205.0000      0.5340
  206.0000      0.4749
  207.0000      0.4296
  208.0000      0.3932
  209.0000      0.3628
  210.0000      0.3398
  211.0000      0.3196
  212.0000      0.3039
  213.0000      0.2878
  214.0000      0.2755
  215.0000      0.2645
  216.0000      0.2553
  217.0000      0.2456
  218.0000      0.2383
  219.0000      0.2316
  220.0000      0.2250
  221.0000      0.2186
  222.0000      0.2129
  223.0000      0.2076
  224.0000      0.2029
  225.0000      0.1974
  226.0000      0.1926
  227.0000      0.1883
  228.0000      0.1840
  229.0000      0.1789
  230.0000      0.1753
  231.0000      0.1709
  232.0000      0.1664
  233.0000      0.1626
  234.0000      0.1588
  235.0000      0.1551
  236.0000      0.1516
  237.0000      0.1481
  238.0000      0.1448
  239.0000      0.1423
  240.0000      0.1395
  241.0000      0.1367
  242.0000      0.1348
  243.0000      0.1324
  244.0000      0.1309
  245.0000      0.1289
  246.0000      0.1270
  247.0000      0.1259
  248.0000      0.1247
  249.0000      0.1228
  250.0000      0.1219
  251.0000      0.1206
  252.0000      0.1190
  253.0000      0.1183
  254.0000      0.1168
  255.0000      0.1152
  256.0000      0.1143
  257.0000      0.1131
  258.0000      0.1118
  259.0000      0.1110
  260.0000      0.1094
  261.0000      0.1078
  262.0000      0.1069
  263.0000      0.1053
  264.0000      0.1037
  265.0000      0.1030
  266.0000      0.1011
  267.0000      0.0996
  268.0000      0.0979
  269.0000      0.0962
  270.0000      0.0946
  271.0000      0.0928
  272.0000      0.0909
  273.0000      0.0893
  274.0000      0.0875
  275.0000      0.0854
  276.0000      0.0843
  277.0000      0.0830
  278.0000      0.0808
  279.0000      0.0790
  280.0000      0.0777
  281.0000      0.0756
  282.0000      0.0738
  283.0000      0.0726
  284.0000      0.0706
  285.0000      0.0694
  286.0000      0.0673
  287.0000      0.0655
  288.0000      0.0645
  289.0000      0.0624
  290.0000      0.0613
  291.0000      0.0596
  292.0000      0.0577
  293.0000      0.0568
  294.0000      0.0557
  295.0000      0.0538
  296.0000      0.0530
  297.0000      0.0518
  298.0000      0.0503
  299.0000      0.0490
  300.0000      0.0482
  301.0000      0.0467
  302.0000      0.0466
  303.0000      0.0448
  304.0000      0.0445
  305.0000      0.0431
  306.0000      0.0422
  307.0000      0.0418
  308.0000      0.0405
  309.0000      0.0399
  310.0000      0.0394
  311.0000      0.0388
  312.0000      0.0386
  313.0000      0.0374
  314.0000      0.0368
  315.0000      0.0365
  316.0000      0.0362
  317.0000      0.0351
  318.0000      0.0354
  319.0000      0.0346
  320.0000      0.0338
  321.0000      0.0336
  322.0000      0.0329
  323.0000      0.0320
  324.0000      0.0315
  325.0000      0.0317
  326.0000      0.0305
  327.0000      0.0302
  328.0000      0.0304
  329.0000      0.0292
  330.0000      0.0293
  331.0000      0.0290
  332.0000      0.0282
  333.0000      0.0282
  334.0000      0.0279
  335.0000      0.0276
  336.0000      0.0274
  337.0000      0.0271
  338.0000      0.0268
  339.0000      0.0263
  340.0000      0.0261
  341.0000      0.0260
  342.0000      0.0256
  343.0000      0.0251
  344.0000      0.0248
  345.0000      0.0244
  346.0000      0.0244
  347.0000      0.0243
  348.0000      0.0239
  349.0000      0.0234
  350.0000      0.0233
  351.0000      0.0229
  352.0000      0.0229
  353.0000      0.0225
  354.0000      0.0223
  355.0000      0.0222
  356.0000      0.0222
  357.0000      0.0235
  358.0000      0.0233
  359.0000      0.0220
  360.0000      0.0228
  361.0000      0.0234
  362.0000      0.0225
  363.0000      0.0222
  364.0000      0.0217
  365.0000      0.0229
  366.0000      0.0200
  367.0000      0.0219
  368.0000      0.0219
  369.0000      0.0195
  370.0000      0.0211
  371.0000      0.0209
  372.0000      0.0203
  373.0000      0.0205
  374.0000      0.0205
  375.0000      0.0200
  376.0000      0.0207
  377.0000      0.0194
  378.0000      0.0193
  379.0000      0.0203
  380.0000      0.0186
  381.0000      0.0193
  382.0000      0.0185
  383.0000      0.0184
  384.0000      0.0198
  385.0000      0.0184
  386.0000      0.0188
  387.0000      0.0183
  388.0000      0.0182
  389.0000      0.0187
  390.0000      0.0174
  391.0000      0.0181
  392.0000      0.0178
  393.0000      0.0182
  394.0000      0.0173
  395.0000      0.0181
  396.0000      0.0175
  397.0000      0.0173
  398.0000      0.0175
  399.0000      0.0173
  400.0000      0.0173
  401.0000      0.0172
  402.0000      0.0169
  403.0000      0.0171
  404.0000      0.0166
  405.0000      0.0168
  406.0000      0.0167
  407.0000      0.0167
  408.0000      0.0165
  409.0000      0.0165
  410.0000      0.0162
  411.0000      0.0162
  412.0000      0.0168
  413.0000      0.0160
  414.0000      0.0165
  415.0000      0.0164
  416.0000      0.0160
  417.0000      0.0161
  418.0000      0.0159
  419.0000      0.0159
  420.0000      0.0157
  421.0000      0.0157
  422.0000      0.0155
  423.0000      0.0153
  424.0000      0.0154
  425.0000      0.0153
  426.0000      0.0153
  427.0000      0.0151
  428.0000      0.0152
  429.0000      0.0151
  430.0000      0.0149
  431.0000      0.0149
  432.0000      0.0148
  433.0000      0.0149
  434.0000      0.0148
  435.0000      0.0147
  436.0000      0.0146
  437.0000      0.0145
  438.0000      0.0144
  439.0000      0.0143
  440.0000      0.0142
  441.0000      0.0142
  442.0000      0.0141
  443.0000      0.0141
  444.0000      0.0140
  445.0000      0.0140
  446.0000      0.0138
  447.0000      0.0138
  448.0000      0.0136
  449.0000      0.0136
  450.0000      0.0135
  451.0000      0.0133
  452.0000      0.0133
  453.0000      0.0132
  454.0000      0.0131
  455.0000      0.0130
  456.0000      0.0130
  457.0000      0.0128
  458.0000      0.0127
  459.0000      0.0127
  460.0000      0.0125
  461.0000      0.0124
  462.0000      0.0123
  463.0000      0.0124
  464.0000      0.0123
  465.0000      0.0122
  466.0000      0.0123
  467.0000      0.0122
  468.0000      0.0122
  469.0000      0.0122
  470.0000      0.0121
  471.0000      0.0121
  472.0000      0.0120
  473.0000      0.0119
  474.0000      0.0119
  475.0000      0.0119
  476.0000      0.0118
  477.0000      0.0117
  478.0000      0.0117
  479.0000      0.0117
  480.0000      0.0116
  481.0000      0.0116
  482.0000      0.0116
  483.0000      0.0115
  484.0000      0.0114
  485.0000      0.0114
  486.0000      0.0113
  487.0000      0.0113
  488.0000      0.0112
  489.0000      0.0112
  490.0000      0.0111
  491.0000      0.0111
  492.0000      0.0110
  493.0000      0.0111
  494.0000      0.0110
  495.0000      0.0110
  496.0000      0.0110
  497.0000      0.0109
  498.0000      0.0109
  499.0000      0.0109
  500.0000      0.0108
  501.0000      0.0108
  502.0000      0.0108
  503.0000      0.0108
  504.0000      0.0107
  505.0000      0.0107
  506.0000      0.0107
  507.0000      0.0107
  508.0000      0.0106
  509.0000      0.0106
  510.0000      0.0106
  511.0000      0.0106
  512.0000      0.0106
  513.0000      0.0105
  514.0000      0.0105
  515.0000      0.0105
  516.0000      0.0104
  517.0000      0.0104
  518.0000      0.0104
  519.0000      0.0103
  520.0000      0.0102
  521.0000      0.0102
  522.0000      0.0102
  523.0000      0.0101
  524.0000      0.0100
  525.0000      0.0100
  526.0000      0.0100
  527.0000      0.0099
  528.0000      0.0098
  529.0000      0.0098
  530.0000      0.0097
  531.0000      0.0097
  532.0000      0.0097
  533.0000      0.0096
  534.0000      0.0096
  535.0000      0.0096
  536.0000      0.0096
  537.0000      0.0096
  538.0000      0.0096
  539.0000      0.0096
  540.0000      0.0096
  541.0000      0.0096
  542.0000      0.0095
  543.0000      0.0095
  544.0000      0.0095
  545.0000      0.0095
  546.0000      0.0095
  547.0000      0.0095
  548.0000      0.0094
  549.0000      0.0094
  550.0000      0.0093
  551.0000      0.0093
  552.0000      0.0092
  553.0000      0.0092
  554.0000      0.0092
  555.0000      0.0092
  556.0000      0.0092
  557.0000      0.0097
  558.0000      0.0097
  559.0000      0.0098
  560.0000      0.0097
  561.0000      0.0097
  562.0000      0.0097
  563.0000      0.0097
  564.0000      0.0096
  565.0000      0.0096
  566.0000      0.0095
  567.0000      0.0094
  568.0000      0.0094
  569.0000      0.0093
  570.0000      0.0092
  571.0000      0.0092
  572.0000      0.0092
  573.0000      0.0091
  574.0000      0.0091
  575.0000      0.0091
  576.0000      0.0090
  577.0000      0.0090
  578.0000      0.0090
  579.0000      0.0089
  580.0000      0.0089
  581.0000      0.0089
  582.0000      0.0089
  583.0000      0.0088
  584.0000      0.0088
  585.0000      0.0088
  586.0000      0.0087
  587.0000      0.0087
  588.0000      0.0086
  589.0000      0.0086
  590.0000      0.0086
  591.0000      0.0085
  592.0000      0.0086
  593.0000      0.0086
  594.0000      0.0086
  595.0000      0.0086
  596.0000      0.0086
  597.0000      0.0086
  598.0000      0.0086
  599.0000      0.0085
  600.0000      0.0085
  601.0000      0.0085
  602.0000      0.0085
  603.0000      0.0085
  604.0000      0.0085
  605.0000      0.0085
  606.0000      0.0085
  607.0000      0.0085
  608.0000      0.0085
  609.0000      0.0085
  610.0000      0.0086
  611.0000      0.0086
  612.0000      0.0086
  613.0000      0.0086
  614.0000      0.0086
  615.0000      0.0086
  616.0000      0.0087
  617.0000      0.0087
  618.0000      0.0087
  619.0000      0.0087
  620.0000      0.0087
  621.0000      0.0087
  622.0000      0.0087
  623.0000      0.0087
  624.0000      0.0087
  625.0000      0.0087
  626.0000      0.0087
  627.0000      0.0087
  628.0000      0.0087
  629.0000      0.0087
  630.0000      0.0087
  631.0000      0.0087
  632.0000      0.0087
  633.0000      0.0086
  634.0000      0.0086
  635.0000      0.0086
  636.0000      0.0086
  637.0000      0.0085
  638.0000      0.0085
  639.0000      0.0084
  640.0000      0.0084
  641.0000      0.0084
  642.0000      0.0085
  643.0000      0.0085
  644.0000      0.0084
  645.0000      0.0084
  646.0000      0.0085
  647.0000      0.0084
  648.0000      0.0085
  649.0000      0.0085
  650.0000      0.0085
  651.0000      0.0085
  652.0000      0.0085
  653.0000      0.0085
  654.0000      0.0085
  655.0000      0.0084
  656.0000      0.0084
  657.0000      0.0084
  658.0000      0.0084
  659.0000      0.0084
  660.0000      0.0084
  661.0000      0.0084
  662.0000      0.0085
  663.0000      0.0085
  664.0000      0.0085
  665.0000      0.0086
  666.0000      0.0085
  667.0000      0.0085
  668.0000      0.0086
  669.0000      0.0086
  670.0000      0.0086
  671.0000      0.0086
  672.0000      0.0086
  673.0000      0.0085
  674.0000      0.0085
  675.0000      0.0085
  676.0000      0.0086
  677.0000      0.0085
  678.0000      0.0084
  679.0000      0.0084
  680.0000      0.0085
  681.0000      0.0084
  682.0000      0.0084
  683.0000      0.0083
  684.0000      0.0083
  685.0000      0.0082
  686.0000      0.0082
  687.0000      0.0081
  688.0000      0.0080
  689.0000      0.0079
  690.0000      0.0079
  691.0000      0.0079
  692.0000      0.0078
  693.0000      0.0078
  694.0000      0.0078
  695.0000      0.0077
  696.0000      0.0077
  697.0000      0.0077
  698.0000      0.0077
  699.0000      0.0077
  700.0000      0.0077
  701.0000      0.0076
  702.0000      0.0076
  703.0000      0.0076
  704.0000      0.0077
  705.0000      0.0077
  706.0000      0.0077
  707.0000      0.0077
  708.0000      0.0078
  709.0000      0.0078
  710.0000      0.0078
  711.0000      0.0078
  712.0000      0.0078
  713.0000      0.0078
  714.0000      0.0078
  715.0000      0.0078
  716.0000      0.0078
  717.0000      0.0078
  718.0000      0.0078
  719.0000      0.0078
  720.0000      0.0078
  721.0000      0.0078
  722.0000      0.0078
  723.0000      0.0078
  724.0000      0.0078
  725.0000      0.0077
  726.0000      0.0077
  727.0000      0.0077
  728.0000      0.0077
  729.0000      0.0077
  730.0000      0.0076
  731.0000      0.0076
  732.0000      0.0076
  733.0000      0.0076
  734.0000      0.0076
  735.0000      0.0076
  736.0000      0.0073
  737.0000      0.0073
  738.0000      0.0072
  739.0000      0.0072
  740.0000      0.0072
  741.0000      0.0072
  742.0000      0.0072
  743.0000      0.0072
  744.0000      0.0072
  745.0000      0.0071
  746.0000      0.0071
  747.0000      0.0071
  748.0000      0.0071
  749.0000      0.0071
  750.0000      0.0071
  751.0000      0.0071
  752.0000      0.0071
  753.0000      0.0071
  754.0000      0.0070
  755.0000      0.0071
  756.0000      0.0070
  757.0000      0.0070
  758.0000      0.0070
  759.0000      0.0070
  760.0000      0.0069
  761.0000      0.0070
  762.0000      0.0069
  763.0000      0.0069
  764.0000      0.0070
  765.0000      0.0069
  766.0000      0.0069
  767.0000      0.0069
  768.0000      0.0069
  769.0000      0.0069
  770.0000      0.0069
  771.0000      0.0070
  772.0000      0.0069
  773.0000      0.0070
  774.0000      0.0069
  775.0000      0.0069
  776.0000      0.0069
  777.0000      0.0069
  778.0000      0.0069
  779.0000      0.0069
  780.0000      0.0070
  781.0000      0.0069
  782.0000      0.0070
  783.0000      0.0069
  784.0000      0.0070
  785.0000      0.0069
  786.0000      0.0069
  787.0000      0.0069
  788.0000      0.0069
  789.0000      0.0069
  790.0000      0.0069
  791.0000      0.0069
  792.0000      0.0069
  793.0000      0.0070
  794.0000      0.0069
  795.0000      0.0070
  796.0000      0.0069
  797.0000      0.0069
  798.0000      0.0069
  799.0000      0.0069
  800.0000      0.0068
