Start Wavelength:    200.0000
End Wavelength:    800.0000
Read Mode:  ABS
Read Average:      0.1000
Nanometer Interval:      1.0000
Time:      0.0000

  200.0000      0.8807
  201.0000      0.7156
  202.0000      0.6403
  203.0000      0.5821
  204.0000      0.5257
  205.0000      0.4874
  206.0000      0.4532
  207.0000      0.4249
  208.0000      0.4009
  209.0000      0.3756
  210.0000      0.3566
  211.0000      0.3390
  212.0000      0.3245
  213.0000      0.3094
  214.0000      0.2969
  215.0000      0.2861
  216.0000      0.2759
  217.0000      0.2671
  218.0000      0.2589
  219.0000      0.2508
  220.0000      0.2446
  221.0000      0.2378
  222.0000      0.2312
  223.0000      0.2259
  224.0000      0.2208
  225.0000      0.2145
  226.0000      0.2093
  227.0000      0.2045
  228.0000      0.1995
  229.0000      0.1937
  230.0000      0.1897
  231.0000      0.1846
  232.0000      0.1803
  233.0000      0.1763
  234.0000      0.1717
  235.0000      0.1687
  236.0000      0.1648
  237.0000      0.1606
  238.0000      0.1578
  239.0000      0.1549
  240.0000      0.1518
  241.0000      0.1491
  242.0000      0.1469
  243.0000      0.1440
  244.0000      0.1421
  245.0000      0.1399
  246.0000      0.1376
  247.0000      0.1362
  248.0000      0.1349
  249.0000      0.1324
  250.0000      0.1315
  251.0000      0.1300
  252.0000      0.1281
  253.0000      0.1272
  254.0000      0.1255
  255.0000      0.1236
  256.0000      0.1223
  257.0000      0.1210
  258.0000      0.1191
  259.0000      0.1179
  260.0000      0.1163
  261.0000      0.1142
  262.0000      0.1129
  263.0000      0.1118
  264.0000      0.1094
  265.0000      0.1083
  266.0000      0.1064
  267.0000      0.1044
  268.0000      0.1029
  269.0000      0.1010
  270.0000      0.0992
  271.0000      0.0975
  272.0000      0.0958
  273.0000      0.0933
  274.0000      0.0915
  275.0000      0.0897
  276.0000      0.0872
  277.0000      0.0856
  278.0000      0.0840
  279.0000      0.0815
  280.0000      0.0799
  281.0000      0.0787
  282.0000      0.0763
  283.0000      0.0742
  284.0000      0.0727
  285.0000      0.0708
  286.0000      0.0688
  287.0000      0.0668
  288.0000      0.0653
  289.0000      0.0628
  290.0000      0.0616
  291.0000      0.0599
  292.0000      0.0576
  293.0000      0.0569
  294.0000      0.0548
  295.0000      0.0535
  296.0000      0.0524
  297.0000      0.0506
  298.0000      0.0493
  299.0000      0.0484
  300.0000      0.0470
  301.0000      0.0455
  302.0000      0.0449
  303.0000      0.0431
  304.0000      0.0425
  305.0000      0.0409
  306.0000      0.0406
  307.0000      0.0392
  308.0000      0.0385
  309.0000      0.0378
  310.0000      0.0365
  311.0000      0.0364
  312.0000      0.0355
  313.0000      0.0342
  314.0000      0.0341
  315.0000      0.0334
  316.0000      0.0333
  317.0000      0.0323
  318.0000      0.0319
  319.0000      0.0312
  320.0000      0.0314
  321.0000      0.0307
  322.0000      0.0293
  323.0000      0.0286
  324.0000      0.0279
  325.0000      0.0277
  326.0000      0.0272
  327.0000      0.0265
  328.0000      0.0264
  329.0000      0.0256
  330.0000      0.0253
  331.0000      0.0248
  332.0000      0.0241
  333.0000      0.0242
  334.0000      0.0237
  335.0000      0.0237
  336.0000      0.0228
  337.0000      0.0228
  338.0000      0.0224
  339.0000      0.0217
  340.0000      0.0217
  341.0000      0.0214
  342.0000      0.0213
  343.0000      0.0207
  344.0000      0.0200
  345.0000      0.0200
  346.0000      0.0202
  347.0000      0.0192
  348.0000      0.0192
  349.0000      0.0187
  350.0000      0.0186
  351.0000      0.0184
  352.0000      0.0182
  353.0000      0.0178
  354.0000      0.0180
  355.0000      0.0175
  356.0000      0.0174
  357.0000      0.0164
  358.0000      0.0181
  359.0000      0.0167
  360.0000      0.0163
  361.0000      0.0174
  362.0000      0.0162
  363.0000      0.0154
  364.0000      0.0149
  365.0000      0.0165
  366.0000      0.0145
  367.0000      0.0155
  368.0000      0.0154
  369.0000      0.0129
  370.0000      0.0141
  371.0000      0.0145
  372.0000      0.0134
  373.0000      0.0138
  374.0000      0.0141
  375.0000      0.0133
  376.0000      0.0139
  377.0000      0.0134
  378.0000      0.0124
  379.0000      0.0133
  380.0000      0.0125
  381.0000      0.0125
  382.0000      0.0124
  383.0000      0.0119
  384.0000      0.0127
  385.0000      0.0125
  386.0000      0.0119
  387.0000      0.0115
  388.0000      0.0120
  389.0000      0.0114
  390.0000      0.0109
  391.0000      0.0115
  392.0000      0.0108
  393.0000      0.0109
  394.0000      0.0112
  395.0000      0.0106
  396.0000      0.0107
  397.0000      0.0107
  398.0000      0.0108
  399.0000      0.0108
  400.0000      0.0109
  401.0000      0.0100
  402.0000      0.0107
  403.0000      0.0105
  404.0000      0.0098
  405.0000      0.0105
  406.0000      0.0100
  407.0000      0.0101
  408.0000      0.0102
  409.0000      0.0099
  410.0000      0.0100
  411.0000      0.0096
  412.0000      0.0098
  413.0000      0.0096
  414.0000      0.0098
  415.0000      0.0097
  416.0000      0.0089
  417.0000      0.0090
  418.0000      0.0089
  419.0000      0.0087
  420.0000      0.0086
  421.0000      0.0086
  422.0000      0.0085
  423.0000      0.0083
  424.0000      0.0084
  425.0000      0.0082
  426.0000      0.0084
  427.0000      0.0082
  428.0000      0.0082
  429.0000      0.0081
  430.0000      0.0079
  431.0000      0.0080
  432.0000      0.0079
  433.0000      0.0078
  434.0000      0.0078
  435.0000      0.0078
  436.0000      0.0076
  437.0000      0.0076
  438.0000      0.0076
  439.0000      0.0074
  440.0000      0.0073
  441.0000      0.0073
  442.0000      0.0072
  443.0000      0.0072
  444.0000      0.0071
  445.0000      0.0071
  446.0000      0.0070
  447.0000      0.0070
  448.0000      0.0070
  449.0000      0.0070
  450.0000      0.0069
  451.0000      0.0069
  452.0000      0.0069
  453.0000      0.0068
  454.0000      0.0068
  455.0000      0.0067
  456.0000      0.0066
  457.0000      0.0066
  458.0000      0.0064
  459.0000      0.0065
  460.0000      0.0064
  461.0000      0.0063
  462.0000      0.0063
  463.0000      0.0062
  464.0000      0.0061
  465.0000      0.0061
  466.0000      0.0061
  467.0000      0.0060
  468.0000      0.0060
  469.0000      0.0060
  470.0000      0.0060
  471.0000      0.0060
  472.0000      0.0059
  473.0000      0.0059
  474.0000      0.0059
  475.0000      0.0058
  476.0000      0.0058
  477.0000      0.0058
  478.0000      0.0058
  479.0000      0.0058
  480.0000      0.0058
  481.0000      0.0058
  482.0000      0.0057
  483.0000      0.0057
  484.0000      0.0057
  485.0000      0.0057
  486.0000      0.0056
  487.0000      0.0056
  488.0000      0.0056
  489.0000      0.0056
  490.0000      0.0055
  491.0000      0.0055
  492.0000      0.0054
  493.0000      0.0055
  494.0000      0.0054
  495.0000      0.0054
  496.0000      0.0054
  497.0000      0.0053
  498.0000      0.0053
  499.0000      0.0053
  500.0000      0.0052
  501.0000      0.0052
  502.0000      0.0052
  503.0000      0.0052
  504.0000      0.0052
  505.0000      0.0052
  506.0000      0.0052
  507.0000      0.0053
  508.0000      0.0052
  509.0000      0.0052
  510.0000      0.0052
  511.0000      0.0052
  512.0000      0.0053
  513.0000      0.0052
  514.0000      0.0052
  515.0000      0.0052
  516.0000      0.0052
  517.0000      0.0052
  518.0000      0.0051
  519.0000      0.0051
  520.0000      0.0051
  521.0000      0.0051
  522.0000      0.0050
  523.0000      0.0050
  524.0000      0.0049
  525.0000      0.0049
  526.0000      0.0049
  527.0000      0.0049
  528.0000      0.0048
  529.0000      0.0049
  530.0000      0.0049
  531.0000      0.0049
  532.0000      0.0048
  533.0000      0.0048
  534.0000      0.0048
  535.0000      0.0048
  536.0000      0.0048
  537.0000      0.0048
  538.0000      0.0048
  539.0000      0.0048
  540.0000      0.0047
  541.0000      0.0047
  542.0000      0.0046
  543.0000      0.0045
  544.0000      0.0045
  545.0000      0.0045
  546.0000      0.0044
  547.0000      0.0044
  548.0000      0.0043
  549.0000      0.0043
  550.0000      0.0042
  551.0000      0.0042
  552.0000      0.0042
  553.0000      0.0042
  554.0000      0.0041
  555.0000      0.0041
  556.0000      0.0042
  557.0000      0.0043
  558.0000      0.0043
  559.0000      0.0043
  560.0000      0.0042
  561.0000      0.0043
  562.0000      0.0043
  563.0000      0.0043
  564.0000      0.0042
  565.0000      0.0042
  566.0000      0.0043
  567.0000      0.0043
  568.0000      0.0043
  569.0000      0.0042
  570.0000      0.0042
  571.0000      0.0042
  572.0000      0.0042
  573.0000      0.0042
  574.0000      0.0042
  575.0000      0.0042
  576.0000      0.0041
  577.0000      0.0041
  578.0000      0.0041
  579.0000      0.0041
  580.0000      0.0041
  581.0000      0.0041
  582.0000      0.0040
  583.0000      0.0040
  584.0000      0.0040
  585.0000      0.0040
  586.0000      0.0040
  587.0000      0.0040
  588.0000      0.0040
  589.0000      0.0040
  590.0000      0.0040
  591.0000      0.0040
  592.0000      0.0040
  593.0000      0.0040
  594.0000      0.0040
  595.0000      0.0040
  596.0000      0.0040
  597.0000      0.0040
  598.0000      0.0040
  599.0000      0.0040
  600.0000      0.0040
  601.0000      0.0040
  602.0000      0.0040
  603.0000      0.0040
  604.0000      0.0040
  605.0000      0.0040
  606.0000      0.0040
  607.0000      0.0039
  608.0000      0.0040
  609.0000      0.0039
  610.0000      0.0039
  611.0000      0.0040
  612.0000      0.0039
  613.0000      0.0040
  614.0000      0.0040
  615.0000      0.0039
  616.0000      0.0039
  617.0000      0.0039
  618.0000      0.0039
  619.0000      0.0039
  620.0000      0.0039
  621.0000      0.0039
  622.0000      0.0039
  623.0000      0.0039
  624.0000      0.0039
  625.0000      0.0039
  626.0000      0.0039
  627.0000      0.0038
  628.0000      0.0038
  629.0000      0.0038
  630.0000      0.0038
  631.0000      0.0039
  632.0000      0.0038
  633.0000      0.0039
  634.0000      0.0039
  635.0000      0.0038
  636.0000      0.0038
  637.0000      0.0038
  638.0000      0.0038
  639.0000      0.0038
  640.0000      0.0038
  641.0000      0.0038
  642.0000      0.0039
  643.0000      0.0038
  644.0000      0.0038
  645.0000      0.0038
  646.0000      0.0038
  647.0000      0.0038
  648.0000      0.0038
  649.0000      0.0038
  650.0000      0.0038
  651.0000      0.0038
  652.0000      0.0038
  653.0000      0.0039
  654.0000      0.0039
  655.0000      0.0039
  656.0000      0.0039
  657.0000      0.0039
  658.0000      0.0040
  659.0000      0.0040
  660.0000      0.0040
  661.0000      0.0041
  662.0000      0.0041
  663.0000      0.0042
  664.0000      0.0042
  665.0000      0.0043
  666.0000      0.0043
  667.0000      0.0043
  668.0000      0.0044
  669.0000      0.0044
  670.0000      0.0045
  671.0000      0.0045
  672.0000      0.0046
  673.0000      0.0045
  674.0000      0.0045
  675.0000      0.0045
  676.0000      0.0045
  677.0000      0.0045
  678.0000      0.0045
  679.0000      0.0045
  680.0000      0.0046
  681.0000      0.0045
  682.0000      0.0046
  683.0000      0.0045
  684.0000      0.0045
  685.0000      0.0045
  686.0000      0.0045
  687.0000      0.0044
  688.0000      0.0044
  689.0000      0.0043
  690.0000      0.0043
  691.0000      0.0043
  692.0000      0.0043
  693.0000      0.0042
  694.0000      0.0042
  695.0000      0.0041
  696.0000      0.0042
  697.0000      0.0042
  698.0000      0.0042
  699.0000      0.0043
  700.0000      0.0043
  701.0000      0.0042
  702.0000      0.0041
  703.0000      0.0041
  704.0000      0.0041
  705.0000      0.0041
  706.0000      0.0041
  707.0000      0.0041
  708.0000      0.0041
  709.0000      0.0041
  710.0000      0.0040
  711.0000      0.0040
  712.0000      0.0040
  713.0000      0.0041
  714.0000      0.0040
  715.0000      0.0040
  716.0000      0.0040
  717.0000      0.0040
  718.0000      0.0040
  719.0000      0.0040
  720.0000      0.0040
  721.0000      0.0040
  722.0000      0.0039
  723.0000      0.0039
  724.0000      0.0039
  725.0000      0.0038
  726.0000      0.0038
  727.0000      0.0037
  728.0000      0.0037
  729.0000      0.0037
  730.0000      0.0036
  731.0000      0.0036
  732.0000      0.0036
  733.0000      0.0035
  734.0000      0.0034
  735.0000      0.0034
  736.0000      0.0036
  737.0000      0.0036
  738.0000      0.0036
  739.0000      0.0036
  740.0000      0.0036
  741.0000      0.0036
  742.0000      0.0037
  743.0000      0.0038
  744.0000      0.0038
  745.0000      0.0038
  746.0000      0.0039
  747.0000      0.0039
  748.0000      0.0040
  749.0000      0.0040
  750.0000      0.0041
  751.0000      0.0040
  752.0000      0.0041
  753.0000      0.0041
  754.0000      0.0042
  755.0000      0.0042
  756.0000      0.0043
  757.0000      0.0043
  758.0000      0.0043
  759.0000      0.0043
  760.0000      0.0043
  761.0000      0.0042
  762.0000      0.0043
  763.0000      0.0042
  764.0000      0.0043
  765.0000      0.0042
  766.0000      0.0042
  767.0000      0.0041
  768.0000      0.0040
  769.0000      0.0040
  770.0000      0.0040
  771.0000      0.0039
  772.0000      0.0039
  773.0000      0.0038
  774.0000      0.0038
  775.0000      0.0037
  776.0000      0.0036
  777.0000      0.0035
  778.0000      0.0035
  779.0000      0.0034
  780.0000      0.0034
  781.0000      0.0033
  782.0000      0.0033
  783.0000      0.0033
  784.0000      0.0032
  785.0000      0.0032
  786.0000      0.0032
  787.0000      0.0032
  788.0000      0.0031
  789.0000      0.0032
  790.0000      0.0032
  791.0000      0.0032
  792.0000      0.0032
  793.0000      0.0033
  794.0000      0.0033
  795.0000      0.0032
  796.0000      0.0032
  797.0000      0.0032
  798.0000      0.0032
  799.0000      0.0031
  800.0000      0.0031
