Start Wavelength:    200.0000
End Wavelength:    800.0000
Read Mode:  ABS
Read Average:      0.1000
Nanometer Interval:      1.0000
Time:      0.0000

  200.0000      0.9008
  201.0000      0.7300
  202.0000      0.6560
  203.0000      0.5935
  204.0000      0.5402
  205.0000      0.4965
  206.0000      0.4633
  207.0000      0.4349
  208.0000      0.4095
  209.0000      0.3854
  210.0000      0.3661
  211.0000      0.3482
  212.0000      0.3332
  213.0000      0.3181
  214.0000      0.3060
  215.0000      0.2950
  216.0000      0.2857
  217.0000      0.2758
  218.0000      0.2683
  219.0000      0.2611
  220.0000      0.2535
  221.0000      0.2474
  222.0000      0.2407
  223.0000      0.2353
  224.0000      0.2304
  225.0000      0.2240
  226.0000      0.2190
  227.0000      0.2142
  228.0000      0.2098
  229.0000      0.2039
  230.0000      0.1996
  231.0000      0.1953
  232.0000      0.1904
  233.0000      0.1863
  234.0000      0.1822
  235.0000      0.1781
  236.0000      0.1742
  237.0000      0.1702
  238.0000      0.1672
  239.0000      0.1637
  240.0000      0.1606
  241.0000      0.1574
  242.0000      0.1551
  243.0000      0.1523
  244.0000      0.1498
  245.0000      0.1474
  246.0000      0.1459
  247.0000      0.1434
  248.0000      0.1418
  249.0000      0.1398
  250.0000      0.1383
  251.0000      0.1367
  252.0000      0.1350
  253.0000      0.1336
  254.0000      0.1320
  255.0000      0.1305
  256.0000      0.1288
  257.0000      0.1270
  258.0000      0.1258
  259.0000      0.1240
  260.0000      0.1226
  261.0000      0.1204
  262.0000      0.1189
  263.0000      0.1177
  264.0000      0.1153
  265.0000      0.1143
  266.0000      0.1121
  267.0000      0.1099
  268.0000      0.1083
  269.0000      0.1068
  270.0000      0.1044
  271.0000      0.1028
  272.0000      0.1009
  273.0000      0.0987
  274.0000      0.0969
  275.0000      0.0946
  276.0000      0.0928
  277.0000      0.0907
  278.0000      0.0890
  279.0000      0.0866
  280.0000      0.0851
  281.0000      0.0837
  282.0000      0.0808
  283.0000      0.0796
  284.0000      0.0773
  285.0000      0.0751
  286.0000      0.0738
  287.0000      0.0714
  288.0000      0.0694
  289.0000      0.0684
  290.0000      0.0661
  291.0000      0.0643
  292.0000      0.0628
  293.0000      0.0617
  294.0000      0.0594
  295.0000      0.0585
  296.0000      0.0571
  297.0000      0.0551
  298.0000      0.0542
  299.0000      0.0528
  300.0000      0.0515
  301.0000      0.0503
  302.0000      0.0495
  303.0000      0.0480
  304.0000      0.0475
  305.0000      0.0460
  306.0000      0.0449
  307.0000      0.0446
  308.0000      0.0434
  309.0000      0.0425
  310.0000      0.0426
  311.0000      0.0412
  312.0000      0.0409
  313.0000      0.0397
  314.0000      0.0387
  315.0000      0.0390
  316.0000      0.0386
  317.0000      0.0370
  318.0000      0.0375
  319.0000      0.0366
  320.0000      0.0356
  321.0000      0.0361
  322.0000      0.0361
  323.0000      0.0346
  324.0000      0.0342
  325.0000      0.0341
  326.0000      0.0329
  327.0000      0.0324
  328.0000      0.0324
  329.0000      0.0313
  330.0000      0.0309
  331.0000      0.0309
  332.0000      0.0295
  333.0000      0.0295
  334.0000      0.0296
  335.0000      0.0285
  336.0000      0.0283
  337.0000      0.0280
  338.0000      0.0276
  339.0000      0.0271
  340.0000      0.0268
  341.0000      0.0263
  342.0000      0.0261
  343.0000      0.0254
  344.0000      0.0252
  345.0000      0.0246
  346.0000      0.0244
  347.0000      0.0242
  348.0000      0.0239
  349.0000      0.0234
  350.0000      0.0231
  351.0000      0.0228
  352.0000      0.0225
  353.0000      0.0224
  354.0000      0.0223
  355.0000      0.0216
  356.0000      0.0216
  357.0000      0.0222
  358.0000      0.0227
  359.0000      0.0205
  360.0000      0.0219
  361.0000      0.0210
  362.0000      0.0202
  363.0000      0.0220
  364.0000      0.0202
  365.0000      0.0207
  366.0000      0.0205
  367.0000      0.0191
  368.0000      0.0187
  369.0000      0.0178
  370.0000      0.0180
  371.0000      0.0180
  372.0000      0.0184
  373.0000      0.0171
  374.0000      0.0184
  375.0000      0.0174
  376.0000      0.0174
  377.0000      0.0170
  378.0000      0.0169
  379.0000      0.0165
  380.0000      0.0167
  381.0000      0.0167
  382.0000      0.0156
  383.0000      0.0163
  384.0000      0.0159
  385.0000      0.0156
  386.0000      0.0156
  387.0000      0.0147
  388.0000      0.0156
  389.0000      0.0151
  390.0000      0.0135
  391.0000      0.0148
  392.0000      0.0138
  393.0000      0.0138
  394.0000      0.0138
  395.0000      0.0140
  396.0000      0.0134
  397.0000      0.0136
  398.0000      0.0134
  399.0000      0.0133
  400.0000      0.0133
  401.0000      0.0127
  402.0000      0.0131
  403.0000      0.0127
  404.0000      0.0121
  405.0000      0.0126
  406.0000      0.0124
  407.0000      0.0118
  408.0000      0.0118
  409.0000      0.0121
  410.0000      0.0118
  411.0000      0.0115
  412.0000      0.0115
  413.0000      0.0113
  414.0000      0.0115
  415.0000      0.0113
  416.0000      0.0095
  417.0000      0.0096
  418.0000      0.0094
  419.0000      0.0093
  420.0000      0.0092
  421.0000      0.0092
  422.0000      0.0091
  423.0000      0.0089
  424.0000      0.0090
  425.0000      0.0089
  426.0000      0.0090
  427.0000      0.0088
  428.0000      0.0089
  429.0000      0.0089
  430.0000      0.0087
  431.0000      0.0087
  432.0000      0.0087
  433.0000      0.0087
  434.0000      0.0087
  435.0000      0.0086
  436.0000      0.0086
  437.0000      0.0086
  438.0000      0.0086
  439.0000      0.0084
  440.0000      0.0084
  441.0000      0.0083
  442.0000      0.0083
  443.0000      0.0083
  444.0000      0.0081
  445.0000      0.0082
  446.0000      0.0081
  447.0000      0.0081
  448.0000      0.0080
  449.0000      0.0080
  450.0000      0.0080
  451.0000      0.0079
  452.0000      0.0078
  453.0000      0.0077
  454.0000      0.0077
  455.0000      0.0077
  456.0000      0.0076
  457.0000      0.0076
  458.0000      0.0074
  459.0000      0.0075
  460.0000      0.0074
  461.0000      0.0074
  462.0000      0.0073
  463.0000      0.0073
  464.0000      0.0073
  465.0000      0.0072
  466.0000      0.0072
  467.0000      0.0072
  468.0000      0.0071
  469.0000      0.0071
  470.0000      0.0071
  471.0000      0.0070
  472.0000      0.0069
  473.0000      0.0069
  474.0000      0.0068
  475.0000      0.0068
  476.0000      0.0067
  477.0000      0.0066
  478.0000      0.0067
  479.0000      0.0066
  480.0000      0.0066
  481.0000      0.0065
  482.0000      0.0065
  483.0000      0.0064
  484.0000      0.0064
  485.0000      0.0064
  486.0000      0.0063
  487.0000      0.0064
  488.0000      0.0063
  489.0000      0.0063
  490.0000      0.0062
  491.0000      0.0062
  492.0000      0.0062
  493.0000      0.0061
  494.0000      0.0061
  495.0000      0.0060
  496.0000      0.0060
  497.0000      0.0059
  498.0000      0.0059
  499.0000      0.0058
  500.0000      0.0058
  501.0000      0.0057
  502.0000      0.0056
  503.0000      0.0056
  504.0000      0.0055
  505.0000      0.0055
  506.0000      0.0054
  507.0000      0.0053
  508.0000      0.0053
  509.0000      0.0052
  510.0000      0.0052
  511.0000      0.0051
  512.0000      0.0051
  513.0000      0.0051
  514.0000      0.0051
  515.0000      0.0050
  516.0000      0.0050
  517.0000      0.0051
  518.0000      0.0050
  519.0000      0.0050
  520.0000      0.0050
  521.0000      0.0050
  522.0000      0.0050
  523.0000      0.0049
  524.0000      0.0049
  525.0000      0.0049
  526.0000      0.0048
  527.0000      0.0048
  528.0000      0.0047
  529.0000      0.0047
  530.0000      0.0047
  531.0000      0.0046
  532.0000      0.0046
  533.0000      0.0046
  534.0000      0.0046
  535.0000      0.0047
  536.0000      0.0046
  537.0000      0.0047
  538.0000      0.0047
  539.0000      0.0046
  540.0000      0.0046
  541.0000      0.0046
  542.0000      0.0046
  543.0000      0.0046
  544.0000      0.0046
  545.0000      0.0046
  546.0000      0.0046
  547.0000      0.0046
  548.0000      0.0046
  549.0000      0.0046
  550.0000      0.0046
  551.0000      0.0046
  552.0000      0.0045
  553.0000      0.0045
  554.0000      0.0045
  555.0000      0.0044
  556.0000      0.0044
  557.0000      0.0049
  558.0000      0.0049
  559.0000      0.0049
  560.0000      0.0048
  561.0000      0.0048
  562.0000      0.0048
  563.0000      0.0048
  564.0000      0.0048
  565.0000      0.0048
  566.0000      0.0048
  567.0000      0.0048
  568.0000      0.0048
  569.0000      0.0048
  570.0000      0.0048
  571.0000      0.0048
  572.0000      0.0048
  573.0000      0.0048
  574.0000      0.0048
  575.0000      0.0048
  576.0000      0.0048
  577.0000      0.0048
  578.0000      0.0048
  579.0000      0.0048
  580.0000      0.0048
  581.0000      0.0048
  582.0000      0.0048
  583.0000      0.0048
  584.0000      0.0048
  585.0000      0.0048
  586.0000      0.0048
  587.0000      0.0048
  588.0000      0.0048
  589.0000      0.0048
  590.0000      0.0048
  591.0000      0.0048
  592.0000      0.0048
  593.0000      0.0048
  594.0000      0.0047
  595.0000      0.0048
  596.0000      0.0048
  597.0000      0.0047
  598.0000      0.0047
  599.0000      0.0047
  600.0000      0.0047
  601.0000      0.0048
  602.0000      0.0047
  603.0000      0.0048
  604.0000      0.0047
  605.0000      0.0047
  606.0000      0.0046
  607.0000      0.0045
  608.0000      0.0045
  609.0000      0.0044
  610.0000      0.0044
  611.0000      0.0045
  612.0000      0.0045
  613.0000      0.0046
  614.0000      0.0047
  615.0000      0.0047
  616.0000      0.0048
  617.0000      0.0048
  618.0000      0.0049
  619.0000      0.0050
  620.0000      0.0051
  621.0000      0.0051
  622.0000      0.0051
  623.0000      0.0051
  624.0000      0.0051
  625.0000      0.0051
  626.0000      0.0051
  627.0000      0.0051
  628.0000      0.0051
  629.0000      0.0051
  630.0000      0.0051
  631.0000      0.0051
  632.0000      0.0051
  633.0000      0.0052
  634.0000      0.0055
  635.0000      0.0058
  636.0000      0.0060
  637.0000      0.0061
  638.0000      0.0061
  639.0000      0.0061
  640.0000      0.0061
  641.0000      0.0060
  642.0000      0.0060
  643.0000      0.0060
  644.0000      0.0059
  645.0000      0.0058
  646.0000      0.0057
  647.0000      0.0056
  648.0000      0.0056
  649.0000      0.0054
  650.0000      0.0054
  651.0000      0.0052
  652.0000      0.0051
  653.0000      0.0050
  654.0000      0.0049
  655.0000      0.0048
  656.0000      0.0046
  657.0000      0.0045
  658.0000      0.0043
  659.0000      0.0043
  660.0000      0.0041
  661.0000      0.0041
  662.0000      0.0040
  663.0000      0.0040
  664.0000      0.0040
  665.0000      0.0039
  666.0000      0.0039
  667.0000      0.0039
  668.0000      0.0039
  669.0000      0.0039
  670.0000      0.0039
  671.0000      0.0039
  672.0000      0.0040
  673.0000      0.0040
  674.0000      0.0041
  675.0000      0.0041
  676.0000      0.0041
  677.0000      0.0041
  678.0000      0.0041
  679.0000      0.0041
  680.0000      0.0041
  681.0000      0.0041
  682.0000      0.0041
  683.0000      0.0041
  684.0000      0.0040
  685.0000      0.0040
  686.0000      0.0040
  687.0000      0.0040
  688.0000      0.0039
  689.0000      0.0039
  690.0000      0.0038
  691.0000      0.0038
  692.0000      0.0038
  693.0000      0.0038
  694.0000      0.0038
  695.0000      0.0038
  696.0000      0.0039
  697.0000      0.0039
  698.0000      0.0040
  699.0000      0.0040
  700.0000      0.0041
  701.0000      0.0041
  702.0000      0.0041
  703.0000      0.0041
  704.0000      0.0042
  705.0000      0.0043
  706.0000      0.0044
  707.0000      0.0045
  708.0000      0.0045
  709.0000      0.0046
  710.0000      0.0046
  711.0000      0.0047
  712.0000      0.0048
  713.0000      0.0049
  714.0000      0.0048
  715.0000      0.0048
  716.0000      0.0049
  717.0000      0.0049
  718.0000      0.0050
  719.0000      0.0051
  720.0000      0.0053
  721.0000      0.0054
  722.0000      0.0055
  723.0000      0.0055
  724.0000      0.0055
  725.0000      0.0054
  726.0000      0.0054
  727.0000      0.0054
  728.0000      0.0055
  729.0000      0.0055
  730.0000      0.0055
  731.0000      0.0055
  732.0000      0.0055
  733.0000      0.0055
  734.0000      0.0056
  735.0000      0.0057
  736.0000      0.0048
  737.0000      0.0048
  738.0000      0.0048
  739.0000      0.0048
  740.0000      0.0048
  741.0000      0.0048
  742.0000      0.0047
  743.0000      0.0048
  744.0000      0.0047
  745.0000      0.0046
  746.0000      0.0046
  747.0000      0.0045
  748.0000      0.0044
  749.0000      0.0043
  750.0000      0.0043
  751.0000      0.0042
  752.0000      0.0043
  753.0000      0.0043
  754.0000      0.0042
  755.0000      0.0042
  756.0000      0.0043
  757.0000      0.0043
  758.0000      0.0042
  759.0000      0.0042
  760.0000      0.0042
  761.0000      0.0042
  762.0000      0.0042
  763.0000      0.0041
  764.0000      0.0042
  765.0000      0.0042
  766.0000      0.0042
  767.0000      0.0042
  768.0000      0.0043
  769.0000      0.0043
  770.0000      0.0044
  771.0000      0.0044
  772.0000      0.0044
  773.0000      0.0045
  774.0000      0.0044
  775.0000      0.0044
  776.0000      0.0043
  777.0000      0.0043
  778.0000      0.0043
  779.0000      0.0044
  780.0000      0.0044
  781.0000      0.0044
  782.0000      0.0045
  783.0000      0.0045
  784.0000      0.0045
  785.0000      0.0046
  786.0000      0.0046
  787.0000      0.0046
  788.0000      0.0046
  789.0000      0.0047
  790.0000      0.0046
  791.0000      0.0046
  792.0000      0.0046
  793.0000      0.0046
  794.0000      0.0045
  795.0000      0.0046
  796.0000      0.0046
  797.0000      0.0046
  798.0000      0.0046
  799.0000      0.0046
  800.0000      0.0046
