Start Wavelength:    200.0000
End Wavelength:    800.0000
Read Mode:  ABS
Read Average:      0.1000
Nanometer Interval:      1.0000
Time:      0.0000

  200.0000      0.4943
  201.0000      0.4327
  202.0000      0.4005
  203.0000      0.3752
  204.0000      0.3509
  205.0000      0.3315
  206.0000      0.3169
  207.0000      0.3032
  208.0000      0.2904
  209.0000      0.2773
  210.0000      0.2687
  211.0000      0.2589
  212.0000      0.2512
  213.0000      0.2425
  214.0000      0.2353
  215.0000      0.2284
  216.0000      0.2216
  217.0000      0.2159
  218.0000      0.2111
  219.0000      0.2056
  220.0000      0.2010
  221.0000      0.1966
  222.0000      0.1919
  223.0000      0.1878
  224.0000      0.1840
  225.0000      0.1794
  226.0000      0.1756
  227.0000      0.1714
  228.0000      0.1682
  229.0000      0.1637
  230.0000      0.1604
  231.0000      0.1566
  232.0000      0.1537
  233.0000      0.1502
  234.0000      0.1468
  235.0000      0.1447
  236.0000      0.1412
  237.0000      0.1384
  238.0000      0.1360
  239.0000      0.1339
  240.0000      0.1316
  241.0000      0.1289
  242.0000      0.1272
  243.0000      0.1253
  244.0000      0.1237
  245.0000      0.1216
  246.0000      0.1202
  247.0000      0.1192
  248.0000      0.1174
  249.0000      0.1161
  250.0000      0.1152
  251.0000      0.1138
  252.0000      0.1124
  253.0000      0.1117
  254.0000      0.1106
  255.0000      0.1088
  256.0000      0.1079
  257.0000      0.1070
  258.0000      0.1056
  259.0000      0.1043
  260.0000      0.1034
  261.0000      0.1021
  262.0000      0.1009
  263.0000      0.0999
  264.0000      0.0985
  265.0000      0.0980
  266.0000      0.0959
  267.0000      0.0947
  268.0000      0.0937
  269.0000      0.0919
  270.0000      0.0906
  271.0000      0.0890
  272.0000      0.0879
  273.0000      0.0853
  274.0000      0.0843
  275.0000      0.0824
  276.0000      0.0808
  277.0000      0.0795
  278.0000      0.0779
  279.0000      0.0766
  280.0000      0.0748
  281.0000      0.0734
  282.0000      0.0721
  283.0000      0.0703
  284.0000      0.0682
  285.0000      0.0671
  286.0000      0.0655
  287.0000      0.0638
  288.0000      0.0626
  289.0000      0.0612
  290.0000      0.0598
  291.0000      0.0580
  292.0000      0.0567
  293.0000      0.0556
  294.0000      0.0541
  295.0000      0.0529
  296.0000      0.0520
  297.0000      0.0503
  298.0000      0.0487
  299.0000      0.0478
  300.0000      0.0475
  301.0000      0.0458
  302.0000      0.0452
  303.0000      0.0442
  304.0000      0.0433
  305.0000      0.0419
  306.0000      0.0415
  307.0000      0.0410
  308.0000      0.0398
  309.0000      0.0393
  310.0000      0.0385
  311.0000      0.0379
  312.0000      0.0369
  313.0000      0.0365
  314.0000      0.0359
  315.0000      0.0346
  316.0000      0.0350
  317.0000      0.0342
  318.0000      0.0336
  319.0000      0.0329
  320.0000      0.0329
  321.0000      0.0329
  322.0000      0.0316
  323.0000      0.0311
  324.0000      0.0303
  325.0000      0.0300
  326.0000      0.0300
  327.0000      0.0287
  328.0000      0.0289
  329.0000      0.0284
  330.0000      0.0281
  331.0000      0.0275
  332.0000      0.0271
  333.0000      0.0271
  334.0000      0.0264
  335.0000      0.0264
  336.0000      0.0258
  337.0000      0.0258
  338.0000      0.0252
  339.0000      0.0246
  340.0000      0.0249
  341.0000      0.0243
  342.0000      0.0240
  343.0000      0.0235
  344.0000      0.0233
  345.0000      0.0227
  346.0000      0.0227
  347.0000      0.0227
  348.0000      0.0221
  349.0000      0.0216
  350.0000      0.0216
  351.0000      0.0213
  352.0000      0.0212
  353.0000      0.0209
  354.0000      0.0209
  355.0000      0.0204
  356.0000      0.0204
  357.0000      0.0208
  358.0000      0.0216
  359.0000      0.0199
  360.0000      0.0199
  361.0000      0.0208
  362.0000      0.0198
  363.0000      0.0201
  364.0000      0.0194
  365.0000      0.0204
  366.0000      0.0186
  367.0000      0.0184
  368.0000      0.0187
  369.0000      0.0180
  370.0000      0.0175
  371.0000      0.0181
  372.0000      0.0183
  373.0000      0.0180
  374.0000      0.0188
  375.0000      0.0178
  376.0000      0.0175
  377.0000      0.0175
  378.0000      0.0172
  379.0000      0.0170
  380.0000      0.0158
  381.0000      0.0167
  382.0000      0.0163
  383.0000      0.0161
  384.0000      0.0165
  385.0000      0.0161
  386.0000      0.0160
  387.0000      0.0156
  388.0000      0.0156
  389.0000      0.0155
  390.0000      0.0142
  391.0000      0.0152
  392.0000      0.0147
  393.0000      0.0145
  394.0000      0.0148
  395.0000      0.0150
  396.0000      0.0145
  397.0000      0.0142
  398.0000      0.0144
  399.0000      0.0141
  400.0000      0.0138
  401.0000      0.0138
  402.0000      0.0140
  403.0000      0.0133
  404.0000      0.0136
  405.0000      0.0138
  406.0000      0.0133
  407.0000      0.0133
  408.0000      0.0134
  409.0000      0.0130
  410.0000      0.0132
  411.0000      0.0126
  412.0000      0.0128
  413.0000      0.0125
  414.0000      0.0130
  415.0000      0.0127
  416.0000      0.0124
  417.0000      0.0124
  418.0000      0.0121
  419.0000      0.0121
  420.0000      0.0121
  421.0000      0.0121
  422.0000      0.0121
  423.0000      0.0120
  424.0000      0.0122
  425.0000      0.0119
  426.0000      0.0121
  427.0000      0.0119
  428.0000      0.0119
  429.0000      0.0119
  430.0000      0.0118
  431.0000      0.0118
  432.0000      0.0117
  433.0000      0.0118
  434.0000      0.0117
  435.0000      0.0116
  436.0000      0.0115
  437.0000      0.0114
  438.0000      0.0113
  439.0000      0.0112
  440.0000      0.0111
  441.0000      0.0111
  442.0000      0.0110
  443.0000      0.0110
  444.0000      0.0110
  445.0000      0.0109
  446.0000      0.0108
  447.0000      0.0107
  448.0000      0.0106
  449.0000      0.0105
  450.0000      0.0105
  451.0000      0.0104
  452.0000      0.0102
  453.0000      0.0101
  454.0000      0.0101
  455.0000      0.0101
  456.0000      0.0100
  457.0000      0.0099
  458.0000      0.0097
  459.0000      0.0097
  460.0000      0.0096
  461.0000      0.0095
  462.0000      0.0095
  463.0000      0.0096
  464.0000      0.0095
  465.0000      0.0094
  466.0000      0.0095
  467.0000      0.0094
  468.0000      0.0093
  469.0000      0.0093
  470.0000      0.0092
  471.0000      0.0092
  472.0000      0.0091
  473.0000      0.0090
  474.0000      0.0090
  475.0000      0.0089
  476.0000      0.0088
  477.0000      0.0087
  478.0000      0.0087
  479.0000      0.0086
  480.0000      0.0086
  481.0000      0.0084
  482.0000      0.0084
  483.0000      0.0084
  484.0000      0.0082
  485.0000      0.0082
  486.0000      0.0082
  487.0000      0.0081
  488.0000      0.0080
  489.0000      0.0080
  490.0000      0.0079
  491.0000      0.0079
  492.0000      0.0079
  493.0000      0.0079
  494.0000      0.0078
  495.0000      0.0078
  496.0000      0.0077
  497.0000      0.0077
  498.0000      0.0077
  499.0000      0.0077
  500.0000      0.0076
  501.0000      0.0076
  502.0000      0.0076
  503.0000      0.0076
  504.0000      0.0076
  505.0000      0.0076
  506.0000      0.0075
  507.0000      0.0075
  508.0000      0.0075
  509.0000      0.0075
  510.0000      0.0075
  511.0000      0.0074
  512.0000      0.0074
  513.0000      0.0073
  514.0000      0.0073
  515.0000      0.0072
  516.0000      0.0072
  517.0000      0.0072
  518.0000      0.0071
  519.0000      0.0071
  520.0000      0.0070
  521.0000      0.0070
  522.0000      0.0070
  523.0000      0.0070
  524.0000      0.0069
  525.0000      0.0069
  526.0000      0.0069
  527.0000      0.0068
  528.0000      0.0068
  529.0000      0.0067
  530.0000      0.0067
  531.0000      0.0066
  532.0000      0.0066
  533.0000      0.0066
  534.0000      0.0065
  535.0000      0.0065
  536.0000      0.0064
  537.0000      0.0064
  538.0000      0.0064
  539.0000      0.0064
  540.0000      0.0065
  541.0000      0.0064
  542.0000      0.0064
  543.0000      0.0063
  544.0000      0.0062
  545.0000      0.0062
  546.0000      0.0061
  547.0000      0.0061
  548.0000      0.0060
  549.0000      0.0060
  550.0000      0.0060
  551.0000      0.0060
  552.0000      0.0060
  553.0000      0.0060
  554.0000      0.0059
  555.0000      0.0059
  556.0000      0.0059
  557.0000      0.0062
  558.0000      0.0062
  559.0000      0.0062
  560.0000      0.0062
  561.0000      0.0063
  562.0000      0.0063
  563.0000      0.0063
  564.0000      0.0063
  565.0000      0.0063
  566.0000      0.0064
  567.0000      0.0064
  568.0000      0.0064
  569.0000      0.0064
  570.0000      0.0064
  571.0000      0.0064
  572.0000      0.0064
  573.0000      0.0064
  574.0000      0.0063
  575.0000      0.0062
  576.0000      0.0062
  577.0000      0.0062
  578.0000      0.0062
  579.0000      0.0061
  580.0000      0.0061
  581.0000      0.0061
  582.0000      0.0060
  583.0000      0.0060
  584.0000      0.0060
  585.0000      0.0060
  586.0000      0.0060
  587.0000      0.0060
  588.0000      0.0060
  589.0000      0.0060
  590.0000      0.0060
  591.0000      0.0059
  592.0000      0.0059
  593.0000      0.0059
  594.0000      0.0059
  595.0000      0.0058
  596.0000      0.0058
  597.0000      0.0058
  598.0000      0.0058
  599.0000      0.0058
  600.0000      0.0057
  601.0000      0.0058
  602.0000      0.0058
  603.0000      0.0057
  604.0000      0.0058
  605.0000      0.0058
  606.0000      0.0058
  607.0000      0.0058
  608.0000      0.0057
  609.0000      0.0057
  610.0000      0.0056
  611.0000      0.0056
  612.0000      0.0056
  613.0000      0.0056
  614.0000      0.0057
  615.0000      0.0056
  616.0000      0.0056
  617.0000      0.0055
  618.0000      0.0054
  619.0000      0.0054
  620.0000      0.0054
  621.0000      0.0054
  622.0000      0.0054
  623.0000      0.0053
  624.0000      0.0053
  625.0000      0.0053
  626.0000      0.0053
  627.0000      0.0053
  628.0000      0.0053
  629.0000      0.0054
  630.0000      0.0053
  631.0000      0.0054
  632.0000      0.0054
  633.0000      0.0054
  634.0000      0.0054
  635.0000      0.0053
  636.0000      0.0053
  637.0000      0.0053
  638.0000      0.0052
  639.0000      0.0052
  640.0000      0.0052
  641.0000      0.0052
  642.0000      0.0053
  643.0000      0.0053
  644.0000      0.0053
  645.0000      0.0053
  646.0000      0.0053
  647.0000      0.0053
  648.0000      0.0053
  649.0000      0.0052
  650.0000      0.0053
  651.0000      0.0053
  652.0000      0.0053
  653.0000      0.0053
  654.0000      0.0053
  655.0000      0.0053
  656.0000      0.0053
  657.0000      0.0053
  658.0000      0.0053
  659.0000      0.0053
  660.0000      0.0053
  661.0000      0.0053
  662.0000      0.0053
  663.0000      0.0054
  664.0000      0.0054
  665.0000      0.0054
  666.0000      0.0054
  667.0000      0.0054
  668.0000      0.0054
  669.0000      0.0054
  670.0000      0.0054
  671.0000      0.0054
  672.0000      0.0054
  673.0000      0.0054
  674.0000      0.0055
  675.0000      0.0055
  676.0000      0.0055
  677.0000      0.0054
  678.0000      0.0053
  679.0000      0.0052
  680.0000      0.0052
  681.0000      0.0051
  682.0000      0.0051
  683.0000      0.0050
  684.0000      0.0049
  685.0000      0.0048
  686.0000      0.0047
  687.0000      0.0047
  688.0000      0.0046
  689.0000      0.0045
  690.0000      0.0044
  691.0000      0.0043
  692.0000      0.0042
  693.0000      0.0042
  694.0000      0.0041
  695.0000      0.0041
  696.0000      0.0040
  697.0000      0.0040
  698.0000      0.0040
  699.0000      0.0039
  700.0000      0.0039
  701.0000      0.0038
  702.0000      0.0038
  703.0000      0.0038
  704.0000      0.0038
  705.0000      0.0037
  706.0000      0.0037
  707.0000      0.0037
  708.0000      0.0036
  709.0000      0.0036
  710.0000      0.0036
  711.0000      0.0036
  712.0000      0.0036
  713.0000      0.0035
  714.0000      0.0035
  715.0000      0.0035
  716.0000      0.0035
  717.0000      0.0035
  718.0000      0.0035
  719.0000      0.0035
  720.0000      0.0035
  721.0000      0.0035
  722.0000      0.0035
  723.0000      0.0035
  724.0000      0.0035
  725.0000      0.0034
  726.0000      0.0035
  727.0000      0.0035
  728.0000      0.0034
  729.0000      0.0034
  730.0000      0.0034
  731.0000      0.0034
  732.0000      0.0034
  733.0000      0.0033
  734.0000      0.0034
  735.0000      0.0034
  736.0000      0.0034
  737.0000      0.0034
  738.0000      0.0034
  739.0000      0.0034
  740.0000      0.0034
  741.0000      0.0034
  742.0000      0.0034
  743.0000      0.0035
  744.0000      0.0036
  745.0000      0.0035
  746.0000      0.0035
  747.0000      0.0035
  748.0000      0.0035
  749.0000      0.0035
  750.0000      0.0035
  751.0000      0.0034
  752.0000      0.0035
  753.0000      0.0034
  754.0000      0.0034
  755.0000      0.0034
  756.0000      0.0035
  757.0000      0.0035
  758.0000      0.0034
  759.0000      0.0035
  760.0000      0.0035
  761.0000      0.0035
  762.0000      0.0035
  763.0000      0.0035
  764.0000      0.0036
  765.0000      0.0035
  766.0000      0.0035
  767.0000      0.0035
  768.0000      0.0035
  769.0000      0.0035
  770.0000      0.0036
  771.0000      0.0036
  772.0000      0.0036
  773.0000      0.0036
  774.0000      0.0036
  775.0000      0.0035
  776.0000      0.0035
  777.0000      0.0036
  778.0000      0.0036
  779.0000      0.0036
  780.0000      0.0036
  781.0000      0.0035
  782.0000      0.0036
  783.0000      0.0035
  784.0000      0.0036
  785.0000      0.0036
  786.0000      0.0036
  787.0000      0.0037
  788.0000      0.0036
  789.0000      0.0037
  790.0000      0.0037
  791.0000      0.0037
  792.0000      0.0036
  793.0000      0.0036
  794.0000      0.0036
  795.0000      0.0036
  796.0000      0.0036
  797.0000      0.0037
  798.0000      0.0036
  799.0000      0.0036
  800.0000      0.0036
